SpectraSuite Datei
++++++++++++++++++++++++++++++++++++
Datum: Tue Sep 26 15:46:01 CEST 2023
Benutzer: Leiter
Dark-Spektrum vorhanden: Nein
Referenz-Spektrum vorhanden: Nein
Zahl der probierten Teilspektren: 1
Spektrometer: USB2+H15728
Integrationszeit (usec): 150000 (USB2+H15728)
Spektren Durchschnitt berechnet: 500 (USB2+H15728)
Boxcar Glättung: 0 (USB2+H15728)
Dunkelstromkorrektur: Nein (USB2+H15728)
Puls/Lampe aktiviert: Nein (USB2+H15728)
Correct for Detector Non-linearity: Nein (USB2+H15728)
Streulichtkorrektur: Nein (USB2+H15728)
Anzahl Pixel in verarbeitetem Spektrum: 2048
>>>>>Begin Processed Spectral Data<<<<<
0,00	860,58
1,00	860,58
2,00	860,58
3,00	829,63
4,00	848,77
5,00	851,06
6,00	853,14
7,00	860,44
8,00	882,20
9,00	888,66
10,00	902,41
11,00	926,28
12,00	928,72
13,00	987,64
14,00	962,39
15,00	982,29
16,00	997,27
17,00	1033,33
18,00	1033,86
19,00	1073,08
20,00	1061,23
21,00	1076,82
22,00	1097,83
23,00	1120,38
24,00	1118,99
25,00	1138,16
26,00	1152,40
27,00	1175,33
28,00	1166,38
29,00	1176,17
30,00	1190,50
31,00	1192,66
32,00	1224,07
33,00	1198,26
34,00	1208,48
35,00	1213,21
36,00	1215,90
37,00	1205,19
38,00	1214,59
39,00	1243,81
40,00	1209,74
41,00	1232,22
42,00	1216,07
43,00	1224,68
44,00	1209,82
45,00	1208,03
46,00	1201,93
47,00	1219,28
48,00	1205,62
49,00	1224,64
50,00	1206,87
51,00	1211,30
52,00	1200,31
53,00	1222,37
54,00	1199,83
55,00	1196,21
56,00	1206,66
57,00	1197,54
58,00	1193,21
59,00	1196,47
60,00	1178,70
61,00	1189,02
62,00	1183,39
63,00	1179,51
64,00	1187,71
65,00	1178,53
66,00	1180,29
67,00	1181,03
68,00	1181,48
69,00	1178,60
70,00	1267,94
71,00	1191,26
72,00	1181,54
73,00	1178,87
74,00	1179,41
75,00	1179,91
76,00	1177,10
77,00	1187,73
78,00	1184,13
79,00	1193,20
80,00	1182,98
81,00	1174,11
82,00	1180,61
83,00	1174,14
84,00	1215,30
85,00	1190,56
86,00	1223,16
87,00	1214,33
88,00	1177,36
89,00	1175,94
90,00	1184,66
91,00	1206,78
92,00	1187,74
93,00	1196,86
94,00	1180,92
95,00	1178,41
96,00	1182,75
97,00	1258,40
98,00	1189,19
99,00	1187,64
100,00	1192,80
101,00	1203,72
102,00	1185,80
103,00	1185,63
104,00	1186,46
105,00	1204,31
106,00	1195,42
107,00	1197,39
108,00	1200,01
109,00	1189,88
110,00	1205,46
111,00	1205,40
112,00	1187,47
113,00	1201,80
114,00	1187,21
115,00	1190,65
116,00	1193,76
117,00	1186,29
118,00	1193,59
119,00	1228,36
120,00	1192,63
121,00	1192,31
122,00	1197,34
123,00	1182,82
124,00	1186,86
125,00	1191,37
126,00	1198,87
127,00	1200,12
128,00	1192,76
129,00	1201,21
130,00	1196,30
131,00	1201,93
132,00	1191,15
133,00	1208,93
134,00	1196,56
135,00	1188,88
136,00	1187,77
137,00	1207,85
138,00	1224,48
139,00	1201,25
140,00	1202,22
141,00	1206,32
142,00	1198,47
143,00	1189,22
144,00	1197,19
145,00	1193,31
146,00	1196,18
147,00	1220,63
148,00	1273,63
149,00	1211,62
150,00	1189,72
151,00	1204,45
152,00	1188,39
153,00	1191,47
154,00	1193,18
155,00	1187,11
156,00	1209,97
157,00	1194,89
158,00	1200,24
159,00	1201,23
160,00	1208,34
161,00	1217,74
162,00	1188,15
163,00	1194,64
164,00	1188,95
165,00	1191,99
166,00	1195,23
167,00	1205,82
168,00	1189,88
169,00	1193,59
170,00	1196,02
171,00	1183,44
172,00	1213,53
173,00	1190,24
174,00	1195,88
175,00	1196,21
176,00	1195,50
177,00	1195,58
178,00	1203,16
179,00	1190,48
180,00	1203,46
181,00	1194,91
182,00	1196,02
183,00	1230,56
184,00	1192,76
185,00	1190,17
186,00	1193,30
187,00	1196,88
188,00	1208,46
189,00	1197,37
190,00	1189,66
191,00	1193,46
192,00	1204,64
193,00	1193,39
194,00	1202,27
195,00	1207,77
196,00	1206,81
197,00	1203,66
198,00	1218,87
199,00	1194,09
200,00	1191,06
201,00	1209,94
202,00	1204,33
203,00	1201,48
204,00	1198,01
205,00	1207,51
206,00	1198,07
207,00	1202,01
208,00	1207,37
209,00	1201,89
210,00	1209,03
211,00	1209,69
212,00	1194,03
213,00	1207,99
214,00	1209,11
215,00	1204,35
216,00	1200,74
217,00	1203,63
218,00	1221,78
219,00	1195,83
220,00	1226,81
221,00	1207,50
222,00	1212,35
223,00	1203,81
224,00	1203,31
225,00	1194,95
226,00	1206,35
227,00	1196,48
228,00	1198,13
229,00	1204,19
230,00	1200,61
231,00	1211,33
232,00	1208,10
233,00	1204,69
234,00	1208,18
235,00	1205,55
236,00	1228,33
237,00	1202,25
238,00	1195,60
239,00	1197,12
240,00	1211,94
241,00	1214,02
242,00	1199,97
243,00	1212,72
244,00	1202,25
245,00	1196,85
246,00	1197,09
247,00	1203,28
248,00	1209,86
249,00	1198,99
250,00	1215,86
251,00	1200,89
252,00	1212,73
253,00	1202,59
254,00	1213,77
255,00	1197,17
256,00	1209,31
257,00	1211,36
258,00	1203,17
259,00	1203,46
260,00	1199,26
261,00	1202,56
262,00	1192,76
263,00	1198,23
264,00	1208,90
265,00	1202,67
266,00	1202,74
267,00	1201,69
268,00	1213,05
269,00	1207,65
270,00	1201,90
271,00	1220,28
272,00	1210,38
273,00	1203,66
274,00	1204,22
275,00	1202,76
276,00	1197,30
277,00	1207,85
278,00	1204,49
279,00	1212,43
280,00	1200,05
281,00	1205,94
282,00	1199,65
283,00	1210,60
284,00	1205,61
285,00	1203,01
286,00	1213,29
287,00	1206,25
288,00	1195,15
289,00	1201,93
290,00	1214,11
291,00	1197,70
292,00	1214,93
293,00	1203,02
294,00	1210,25
295,00	1208,51
296,00	1199,48
297,00	1199,90
298,00	1207,83
299,00	1210,84
300,00	1207,96
301,00	1212,77
302,00	1204,63
303,00	1213,79
304,00	1200,30
305,00	1217,91
306,00	1205,32
307,00	1202,71
308,00	1206,55
309,00	1206,57
310,00	1207,81
311,00	1201,79
312,00	1205,99
313,00	1227,15
314,00	1215,35
315,00	1200,36
316,00	1206,97
317,00	1197,02
318,00	1197,02
319,00	1210,58
320,00	1206,83
321,00	1204,14
322,00	1200,16
323,00	1219,85
324,00	1205,46
325,00	1217,94
326,00	1202,70
327,00	1207,78
328,00	1213,25
329,00	1214,00
330,00	1205,97
331,00	1196,93
332,00	1200,67
333,00	1212,19
334,00	1204,08
335,00	1209,21
336,00	1213,17
337,00	1206,27
338,00	1216,75
339,00	1204,18
340,00	1202,97
341,00	1206,55
342,00	1200,80
343,00	1227,15
344,00	1237,68
345,00	1202,89
346,00	1199,30
347,00	1215,81
348,00	1201,15
349,00	1224,97
350,00	1208,18
351,00	1200,54
352,00	1236,36
353,00	1219,62
354,00	1200,28
355,00	1204,99
356,00	1208,89
357,00	1220,30
358,00	1203,58
359,00	1205,78
360,00	1211,99
361,00	1206,14
362,00	1222,84
363,00	1216,33
364,00	1210,85
365,00	1209,20
366,00	1213,35
367,00	1204,82
368,00	1206,21
369,00	1205,89
370,00	1201,78
371,00	1205,75
372,00	1228,62
373,00	1202,38
374,00	1206,47
375,00	1209,57
376,00	1200,58
377,00	1309,41
378,00	1211,99
379,00	1205,52
380,00	1198,80
381,00	1238,40
382,00	1218,53
383,00	1207,64
384,00	1203,17
385,00	1202,04
386,00	1208,93
387,00	1212,35
388,00	1214,19
389,00	1224,70
390,00	1217,55
391,00	1211,66
392,00	1202,27
393,00	1204,75
394,00	1211,18
395,00	1204,48
396,00	1216,50
397,00	1205,35
398,00	1215,44
399,00	1206,83
400,00	1217,54
401,00	1204,67
402,00	1206,50
403,00	1205,10
404,00	1213,12
405,00	1219,72
406,00	1204,26
407,00	1220,17
408,00	1204,95
409,00	1227,39
410,00	1213,39
411,00	1206,86
412,00	1200,85
413,00	1201,43
414,00	1237,44
415,00	1219,09
416,00	1226,33
417,00	1208,99
418,00	1207,96
419,00	1205,99
420,00	1217,27
421,00	1210,93
422,00	1218,53
423,00	1204,69
424,00	1205,64
425,00	1207,02
426,00	1203,70
427,00	1207,12
428,00	1210,07
429,00	1203,35
430,00	1205,78
431,00	1207,28
432,00	1205,67
433,00	1205,31
434,00	1223,94
435,00	1219,59
436,00	1230,32
437,00	1212,66
438,00	1208,31
439,00	1210,35
440,00	1214,43
441,00	1209,84
442,00	1223,13
443,00	1206,79
444,00	1207,71
445,00	1208,75
446,00	1219,52
447,00	1210,30
448,00	1227,92
449,00	1210,22
450,00	1202,05
451,00	1236,22
452,00	1204,26
453,00	1207,15
454,00	1208,80
455,00	1207,17
456,00	1212,27
457,00	1254,36
458,00	1210,72
459,00	1208,00
460,00	1207,64
461,00	1204,71
462,00	1204,83
463,00	1209,26
464,00	1213,20
465,00	1203,93
466,00	1215,99
467,00	1213,97
468,00	1207,09
469,00	1219,12
470,00	1228,71
471,00	1214,27
472,00	1229,78
473,00	1208,08
474,00	1203,75
475,00	1216,34
476,00	1204,86
477,00	1208,69
478,00	1220,11
479,00	1216,23
480,00	1212,37
481,00	1205,18
482,00	1212,96
483,00	1229,57
484,00	1210,11
485,00	1229,33
486,00	1202,43
487,00	1209,38
488,00	1214,35
489,00	1209,85
490,00	1218,19
491,00	1220,43
492,00	1218,71
493,00	1208,00
494,00	1214,29
495,00	1215,00
496,00	1218,51
497,00	1209,35
498,00	1216,11
499,00	1202,24
500,00	1202,89
501,00	1207,39
502,00	1217,09
503,00	1212,84
504,00	1216,43
505,00	1221,01
506,00	1226,32
507,00	1231,38
508,00	1225,03
509,00	1203,98
510,00	1211,39
511,00	1220,34
512,00	1212,33
513,00	1227,11
514,00	1254,79
515,00	1213,74
516,00	1211,63
517,00	1211,69
518,00	1211,98
519,00	1229,17
520,00	1228,85
521,00	1204,54
522,00	1217,70
523,00	1244,35
524,00	1220,73
525,00	1210,38
526,00	1209,44
527,00	1213,44
528,00	1214,41
529,00	1218,43
530,00	1212,67
531,00	1213,83
532,00	1201,13
533,00	1219,27
534,00	1211,67
535,00	1218,03
536,00	1221,97
537,00	1216,73
538,00	1220,19
539,00	1218,24
540,00	1209,41
541,00	1223,74
542,00	1206,07
543,00	1218,95
544,00	1219,96
545,00	1214,35
546,00	1205,75
547,00	1225,83
548,00	1220,06
549,00	1206,54
550,00	1210,35
551,00	1215,46
552,00	1255,94
553,00	1227,21
554,00	1223,94
555,00	1228,58
556,00	1210,89
557,00	1236,27
558,00	1210,92
559,00	1213,40
560,00	1231,51
561,00	1213,06
562,00	1226,11
563,00	1213,88
564,00	1218,60
565,00	1222,65
566,00	1218,59
567,00	1224,62
568,00	1216,11
569,00	1214,75
570,00	1218,75
571,00	1219,89
572,00	1210,69
573,00	1217,53
574,00	1217,57
575,00	1224,33
576,00	1229,26
577,00	1222,44
578,00	1211,02
579,00	1212,59
580,00	1216,30
581,00	1221,06
582,00	1215,34
583,00	1216,94
584,00	1210,28
585,00	1232,41
586,00	1212,98
587,00	1221,63
588,00	1214,39
589,00	1219,65
590,00	1228,58
591,00	1215,38
592,00	1224,67
593,00	1223,15
594,00	1216,09
595,00	1218,05
596,00	1227,64
597,00	1225,42
598,00	1210,94
599,00	1223,18
600,00	1221,79
601,00	1770,77
602,00	1261,20
603,00	1223,12
604,00	1221,37
605,00	1221,63
606,00	1221,09
607,00	1219,33
608,00	1217,69
609,00	1223,87
610,00	1222,40
611,00	1215,24
612,00	1227,35
613,00	1215,25
614,00	1229,53
615,00	1222,47
616,00	1226,70
617,00	1235,11
618,00	1224,54
619,00	1214,60
620,00	1220,05
621,00	1225,76
622,00	1215,51
623,00	1224,09
624,00	1217,40
625,00	1255,04
626,00	1221,97
627,00	1230,41
628,00	1223,72
629,00	1233,25
630,00	1222,20
631,00	1219,27
632,00	1231,00
633,00	1220,19
634,00	1227,53
635,00	1242,39
636,00	1233,93
637,00	1238,21
638,00	1231,87
639,00	1245,24
640,00	1251,86
641,00	1252,43
642,00	1267,13
643,00	1263,70
644,00	1259,56
645,00	1269,09
646,00	1266,84
647,00	1262,87
648,00	1258,12
649,00	1275,07
650,00	1267,99
651,00	1267,99
652,00	1265,93
653,00	1256,11
654,00	1256,98
655,00	1258,21
656,00	1270,98
657,00	1255,50
658,00	1262,12
659,00	1259,50
660,00	1309,38
661,00	1262,07
662,00	1251,91
663,00	1254,04
664,00	1245,00
665,00	1243,20
666,00	1259,62
667,00	1236,43
668,00	1232,90
669,00	1249,83
670,00	1246,97
671,00	1244,49
672,00	1239,85
673,00	1247,25
674,00	1243,24
675,00	1235,52
676,00	1258,56
677,00	1246,95
678,00	1242,05
679,00	1248,52
680,00	1245,97
681,00	1245,11
682,00	1250,91
683,00	1246,16
684,00	1251,21
685,00	1251,49
686,00	1255,77
687,00	1277,02
688,00	1247,38
689,00	1275,78
690,00	1271,49
691,00	1249,74
692,00	1258,38
693,00	1259,04
694,00	1255,66
695,00	1273,97
696,00	1266,88
697,00	1266,12
698,00	1277,32
699,00	1320,90
700,00	1269,21
701,00	1294,05
702,00	1285,50
703,00	1283,08
704,00	1297,12
705,00	1286,40
706,00	1292,01
707,00	1284,48
708,00	1312,15
709,00	1295,25
710,00	1297,33
711,00	1319,98
712,00	1305,39
713,00	1298,18
714,00	1306,58
715,00	1323,00
716,00	1333,68
717,00	1329,18
718,00	1344,89
719,00	1351,94
720,00	1357,72
721,00	1390,70
722,00	1390,41
723,00	1438,12
724,00	1433,94
725,00	1424,55
726,00	1444,05
727,00	1486,80
728,00	1499,66
729,00	1510,31
730,00	1488,00
731,00	1520,02
732,00	1474,96
733,00	1532,30
734,00	1541,09
735,00	1559,19
736,00	1568,84
737,00	1623,17
738,00	1816,17
739,00	2193,16
740,00	1900,85
741,00	1948,69
742,00	2039,41
743,00	2038,62
744,00	2096,24
745,00	2151,32
746,00	2250,23
747,00	2469,56
748,00	2638,64
749,00	2798,06
750,00	3070,61
751,00	3661,28
752,00	4376,72
753,00	6120,05
754,00	12309,95
755,00	38570,42
756,00	65535,00
757,00	65535,00
758,00	65535,00
759,00	65535,00
760,00	65535,00
761,00	63209,74
762,00	32322,69
763,00	13181,28
764,00	6501,15
765,00	4476,44
766,00	2934,34
767,00	2596,88
768,00	2249,69
769,00	2091,37
770,00	2065,06
771,00	1956,12
772,00	2017,85
773,00	1917,92
774,00	1774,17
775,00	1713,78
776,00	1767,63
777,00	1701,48
778,00	1641,23
779,00	1595,18
780,00	1536,93
781,00	1489,80
782,00	1461,20
783,00	1445,19
784,00	1455,80
785,00	1497,05
786,00	1457,17
787,00	1432,17
788,00	1401,87
789,00	1365,72
790,00	1376,46
791,00	1376,27
792,00	1357,88
793,00	1352,07
794,00	1354,26
795,00	1333,72
796,00	1345,24
797,00	1334,95
798,00	1340,70
799,00	1336,61
800,00	1316,28
801,00	1322,28
802,00	1324,69
803,00	1314,73
804,00	1296,90
805,00	1283,78
806,00	1290,45
807,00	1273,20
808,00	1261,53
809,00	1267,85
810,00	1285,96
811,00	1279,72
812,00	1275,39
813,00	1263,08
814,00	1266,45
815,00	1263,61
816,00	1272,46
817,00	1267,63
818,00	1258,45
819,00	1277,42
820,00	1249,87
821,00	1262,93
822,00	1251,46
823,00	1248,55
824,00	1244,07
825,00	1250,10
826,00	1240,93
827,00	1248,27
828,00	1237,94
829,00	1264,68
830,00	1246,35
831,00	1250,30
832,00	1236,29
833,00	1242,52
834,00	1250,64
835,00	1232,82
836,00	1244,24
837,00	1236,37
838,00	1231,15
839,00	1233,50
840,00	1230,32
841,00	1847,63
842,00	1275,48
843,00	1255,80
844,00	1236,91
845,00	1249,99
846,00	1236,60
847,00	1223,67
848,00	1230,37
849,00	1229,65
850,00	1230,84
851,00	1222,85
852,00	1217,80
853,00	1233,20
854,00	1219,79
855,00	1222,58
856,00	1221,46
857,00	1233,61
858,00	1227,01
859,00	1240,44
860,00	1227,93
861,00	1225,42
862,00	1224,76
863,00	1217,39
864,00	1226,52
865,00	1220,05
866,00	1240,84
867,00	1231,96
868,00	1216,91
869,00	1233,52
870,00	1219,34
871,00	1222,40
872,00	1222,99
873,00	1215,16
874,00	1213,56
875,00	1224,32
876,00	1225,34
877,00	1210,34
878,00	1216,10
879,00	1226,40
880,00	1225,74
881,00	1212,70
882,00	1233,86
883,00	1214,37
884,00	1214,18
885,00	1220,31
886,00	1219,66
887,00	1223,06
888,00	1216,11
889,00	1214,10
890,00	1228,33
891,00	1239,67
892,00	1221,62
893,00	1214,65
894,00	1208,22
895,00	1214,60
896,00	1217,70
897,00	1209,79
898,00	1220,14
899,00	1213,65
900,00	1223,39
901,00	1210,84
902,00	1209,05
903,00	1220,17
904,00	1213,22
905,00	1216,62
906,00	1224,35
907,00	1218,48
908,00	1210,31
909,00	1210,46
910,00	1213,06
911,00	1218,19
912,00	1221,00
913,00	1218,82
914,00	1211,69
915,00	1213,64
916,00	1226,79
917,00	1212,89
918,00	1203,19
919,00	1207,38
920,00	1209,85
921,00	1215,21
922,00	1217,62
923,00	1216,58
924,00	1218,68
925,00	1216,31
926,00	1217,79
927,00	1217,45
928,00	1215,01
929,00	1216,46
930,00	1212,69
931,00	1221,52
932,00	1209,19
933,00	1228,85
934,00	1209,06
935,00	1228,99
936,00	1214,60
937,00	1209,86
938,00	1207,14
939,00	1227,59
940,00	1204,35
941,00	1204,70
942,00	1218,86
943,00	1209,90
944,00	1245,30
945,00	1214,85
946,00	1207,67
947,00	1215,72
948,00	1219,04
949,00	1215,74
950,00	1225,35
951,00	1216,16
952,00	1208,70
953,00	1205,08
954,00	1207,52
955,00	1221,11
956,00	1209,81
957,00	1204,66
958,00	1211,07
959,00	1213,41
960,00	1202,02
961,00	1219,74
962,00	1210,64
963,00	1215,42
964,00	1256,57
965,00	1212,19
966,00	1219,35
967,00	1219,47
968,00	1207,55
969,00	1239,24
970,00	1211,99
971,00	1220,90
972,00	1210,59
973,00	1222,11
974,00	1207,46
975,00	1209,69
976,00	1203,56
977,00	1219,55
978,00	1212,44
979,00	1207,76
980,00	1202,30
981,00	1214,89
982,00	1204,61
983,00	1202,26
984,00	1206,91
985,00	1204,28
986,00	1209,41
987,00	1223,46
988,00	1236,69
989,00	1206,35
990,00	1211,60
991,00	1210,77
992,00	1215,38
993,00	1206,66
994,00	1204,09
995,00	1213,30
996,00	1202,48
997,00	1222,75
998,00	1211,40
999,00	1234,03
1000,00	1203,21
1001,00	1214,89
1002,00	1202,94
1003,00	1203,01
1004,00	1225,71
1005,00	1206,29
1006,00	1207,54
1007,00	1211,65
1008,00	1207,72
1009,00	1205,97
1010,00	1208,54
1011,00	1204,61
1012,00	1218,98
1013,00	1203,11
1014,00	1206,77
1015,00	1211,32
1016,00	1214,32
1017,00	1202,63
1018,00	1218,92
1019,00	1216,13
1020,00	1204,83
1021,00	1207,05
1022,00	1214,20
1023,00	1207,51
1024,00	1217,97
1025,00	1204,76
1026,00	1207,65
1027,00	1206,56
1028,00	1223,73
1029,00	1207,53
1030,00	1202,52
1031,00	1202,07
1032,00	1206,40
1033,00	1215,85
1034,00	1207,83
1035,00	1222,43
1036,00	1210,83
1037,00	1213,03
1038,00	1209,38
1039,00	1204,52
1040,00	1205,42
1041,00	1206,57
1042,00	1218,30
1043,00	1213,74
1044,00	1297,33
1045,00	1216,98
1046,00	1205,57
1047,00	1200,48
1048,00	1214,01
1049,00	1211,26
1050,00	1213,97
1051,00	1210,88
1052,00	1215,18
1053,00	1204,76
1054,00	1200,21
1055,00	1212,91
1056,00	1220,29
1057,00	1209,34
1058,00	1210,48
1059,00	1214,36
1060,00	1206,22
1061,00	1210,08
1062,00	1204,35
1063,00	1199,18
1064,00	1221,77
1065,00	1206,85
1066,00	1202,97
1067,00	1212,21
1068,00	1208,41
1069,00	1213,13
1070,00	1218,02
1071,00	1221,36
1072,00	1210,23
1073,00	1211,37
1074,00	1204,46
1075,00	1227,62
1076,00	1202,84
1077,00	1204,58
1078,00	1210,87
1079,00	1203,19
1080,00	1230,98
1081,00	1220,97
1082,00	1209,06
1083,00	1211,90
1084,00	1211,14
1085,00	1220,55
1086,00	1202,45
1087,00	1221,68
1088,00	1215,02
1089,00	1205,64
1090,00	1206,87
1091,00	1218,89
1092,00	1207,20
1093,00	1238,83
1094,00	1216,04
1095,00	1209,15
1096,00	1210,37
1097,00	1212,36
1098,00	1201,34
1099,00	1218,59
1100,00	1206,21
1101,00	1210,11
1102,00	1205,13
1103,00	1220,14
1104,00	1216,15
1105,00	1231,53
1106,00	1211,40
1107,00	1212,52
1108,00	1210,22
1109,00	1201,04
1110,00	1204,60
1111,00	1232,15
1112,00	1217,39
1113,00	1206,60
1114,00	1204,76
1115,00	1201,47
1116,00	1212,31
1117,00	1204,39
1118,00	1210,00
1119,00	1212,04
1120,00	1220,11
1121,00	1210,78
1122,00	1208,07
1123,00	1206,48
1124,00	1220,84
1125,00	1201,37
1126,00	1208,55
1127,00	1209,51
1128,00	1246,81
1129,00	1202,28
1130,00	1198,87
1131,00	1217,05
1132,00	1208,92
1133,00	1213,98
1134,00	1229,46
1135,00	1218,14
1136,00	1224,65
1137,00	1217,79
1138,00	1207,66
1139,00	1212,42
1140,00	1209,83
1141,00	1205,88
1142,00	1204,07
1143,00	1209,72
1144,00	1222,24
1145,00	1232,47
1146,00	1212,63
1147,00	1203,11
1148,00	1203,19
1149,00	1205,10
1150,00	1207,14
1151,00	1217,06
1152,00	1214,53
1153,00	1207,18
1154,00	1215,33
1155,00	1205,05
1156,00	1215,51
1157,00	1210,93
1158,00	1214,06
1159,00	1203,34
1160,00	1204,30
1161,00	1216,66
1162,00	1216,57
1163,00	1204,39
1164,00	1203,32
1165,00	1222,96
1166,00	1225,91
1167,00	1208,12
1168,00	1211,60
1169,00	1207,60
1170,00	1208,37
1171,00	1226,77
1172,00	1206,87
1173,00	1212,71
1174,00	1210,23
1175,00	1203,08
1176,00	1205,79
1177,00	1216,99
1178,00	1236,74
1179,00	1221,21
1180,00	1210,72
1181,00	1212,97
1182,00	1208,35
1183,00	1214,54
1184,00	1211,42
1185,00	1209,56
1186,00	1225,01
1187,00	1212,77
1188,00	1217,51
1189,00	1203,01
1190,00	1207,49
1191,00	1216,97
1192,00	1224,94
1193,00	1205,52
1194,00	1207,42
1195,00	1214,78
1196,00	1221,62
1197,00	1202,36
1198,00	1222,91
1199,00	1216,62
1200,00	1208,77
1201,00	1201,67
1202,00	1213,31
1203,00	1209,55
1204,00	1201,31
1205,00	1212,18
1206,00	1200,75
1207,00	1216,47
1208,00	1218,37
1209,00	1202,13
1210,00	1205,87
1211,00	1209,35
1212,00	1210,25
1213,00	1204,39
1214,00	1201,86
1215,00	1210,47
1216,00	1200,22
1217,00	1214,62
1218,00	1205,25
1219,00	1203,50
1220,00	1208,45
1221,00	1225,89
1222,00	1218,68
1223,00	1206,40
1224,00	1209,65
1225,00	1206,88
1226,00	1204,92
1227,00	1213,58
1228,00	1204,08
1229,00	1207,17
1230,00	1206,18
1231,00	1210,00
1232,00	1204,20
1233,00	1203,63
1234,00	1211,00
1235,00	1201,34
1236,00	1217,75
1237,00	1210,00
1238,00	1207,63
1239,00	1210,32
1240,00	1201,58
1241,00	1215,09
1242,00	1210,17
1243,00	1217,30
1244,00	1198,33
1245,00	1205,78
1246,00	1211,81
1247,00	1220,95
1248,00	1220,57
1249,00	1215,13
1250,00	1208,28
1251,00	1215,47
1252,00	1210,72
1253,00	1220,72
1254,00	1205,66
1255,00	1213,27
1256,00	1205,31
1257,00	1213,13
1258,00	1200,70
1259,00	1203,03
1260,00	1217,91
1261,00	1210,43
1262,00	1202,58
1263,00	1204,52
1264,00	1210,36
1265,00	1201,72
1266,00	1235,55
1267,00	1211,15
1268,00	1202,54
1269,00	1207,27
1270,00	1214,01
1271,00	1206,22
1272,00	1204,98
1273,00	1211,91
1274,00	1208,05
1275,00	1204,42
1276,00	1232,25
1277,00	1318,48
1278,00	1227,00
1279,00	1212,40
1280,00	1209,11
1281,00	1204,60
1282,00	1206,03
1283,00	1204,44
1284,00	1206,69
1285,00	1242,08
1286,00	1205,56
1287,00	1210,14
1288,00	1207,40
1289,00	1233,50
1290,00	1211,49
1291,00	1206,05
1292,00	1210,92
1293,00	1207,28
1294,00	1197,65
1295,00	1208,66
1296,00	1224,34
1297,00	1206,88
1298,00	1209,51
1299,00	1203,06
1300,00	1212,93
1301,00	1217,26
1302,00	1224,66
1303,00	1207,52
1304,00	1232,81
1305,00	1216,18
1306,00	1211,84
1307,00	1212,78
1308,00	1215,93
1309,00	1203,02
1310,00	1201,87
1311,00	1208,72
1312,00	1207,44
1313,00	1205,75
1314,00	1209,70
1315,00	1209,33
1316,00	1198,01
1317,00	1203,25
1318,00	1210,11
1319,00	1216,02
1320,00	1205,58
1321,00	1215,58
1322,00	1303,12
1323,00	1204,99
1324,00	1205,72
1325,00	1206,42
1326,00	1208,51
1327,00	1199,44
1328,00	1216,39
1329,00	1201,44
1330,00	1209,46
1331,00	1213,92
1332,00	1204,23
1333,00	1207,26
1334,00	1199,97
1335,00	1215,96
1336,00	1218,41
1337,00	1218,16
1338,00	1208,28
1339,00	1204,19
1340,00	1211,32
1341,00	1211,11
1342,00	1211,87
1343,00	1227,93
1344,00	1212,82
1345,00	1197,49
1346,00	1202,74
1347,00	1209,61
1348,00	1212,12
1349,00	1200,59
1350,00	1233,94
1351,00	1228,68
1352,00	1215,70
1353,00	1213,52
1354,00	1255,75
1355,00	1205,84
1356,00	1199,62
1357,00	1204,08
1358,00	1213,05
1359,00	1215,82
1360,00	1208,47
1361,00	1202,35
1362,00	1205,30
1363,00	1207,46
1364,00	1215,83
1365,00	1224,47
1366,00	1206,00
1367,00	1199,97
1368,00	1206,82
1369,00	1201,73
1370,00	1215,03
1371,00	1204,70
1372,00	1200,92
1373,00	1228,85
1374,00	1200,00
1375,00	1211,33
1376,00	1216,65
1377,00	1215,09
1378,00	1222,26
1379,00	1214,14
1380,00	1249,77
1381,00	1205,28
1382,00	1204,40
1383,00	1232,36
1384,00	1209,60
1385,00	1215,09
1386,00	1226,32
1387,00	1223,94
1388,00	1208,14
1389,00	1219,84
1390,00	1202,75
1391,00	1198,76
1392,00	1229,61
1393,00	1212,29
1394,00	1207,08
1395,00	1203,01
1396,00	1220,36
1397,00	1200,01
1398,00	1247,48
1399,00	1403,27
1400,00	1227,56
1401,00	1223,75
1402,00	1278,12
1403,00	1214,28
1404,00	1204,15
1405,00	1208,18
1406,00	1207,87
1407,00	1207,07
1408,00	1208,96
1409,00	1206,34
1410,00	1204,52
1411,00	1480,25
1412,00	1226,26
1413,00	1200,14
1414,00	1199,01
1415,00	1201,35
1416,00	1198,72
1417,00	1201,43
1418,00	1212,07
1419,00	1213,97
1420,00	1201,43
1421,00	1200,30
1422,00	1198,64
1423,00	1197,95
1424,00	1210,24
1425,00	1197,86
1426,00	1210,61
1427,00	1212,39
1428,00	1196,43
1429,00	1207,88
1430,00	1196,70
1431,00	1200,36
1432,00	1199,38
1433,00	1202,46
1434,00	1214,96
1435,00	1216,11
1436,00	1209,21
1437,00	1221,23
1438,00	1206,84
1439,00	1204,00
1440,00	1204,70
1441,00	1204,78
1442,00	1201,91
1443,00	1202,11
1444,00	1199,51
1445,00	1201,03
1446,00	1215,33
1447,00	1205,54
1448,00	1213,98
1449,00	1208,88
1450,00	1209,53
1451,00	1203,14
1452,00	1223,98
1453,00	1206,99
1454,00	1218,97
1455,00	1219,17
1456,00	1203,49
1457,00	1220,57
1458,00	1217,64
1459,00	1204,71
1460,00	1206,59
1461,00	1211,39
1462,00	1205,95
1463,00	1213,73
1464,00	1205,82
1465,00	1205,72
1466,00	1199,84
1467,00	1213,80
1468,00	1205,13
1469,00	1198,42
1470,00	1205,07
1471,00	1217,57
1472,00	1205,57
1473,00	1202,86
1474,00	1206,91
1475,00	1200,30
1476,00	1235,79
1477,00	1219,11
1478,00	1196,82
1479,00	1227,75
1480,00	1210,79
1481,00	1204,97
1482,00	1203,27
1483,00	1202,91
1484,00	1218,27
1485,00	1220,65
1486,00	1205,81
1487,00	1215,14
1488,00	1216,02
1489,00	1212,35
1490,00	1212,51
1491,00	1207,85
1492,00	1206,73
1493,00	1202,69
1494,00	1204,33
1495,00	1212,87
1496,00	1201,79
1497,00	1225,71
1498,00	1223,78
1499,00	1217,11
1500,00	1208,46
1501,00	1208,62
1502,00	1201,91
1503,00	1211,94
1504,00	1207,06
1505,00	1215,26
1506,00	1200,87
1507,00	1195,02
1508,00	1208,78
1509,00	1200,77
1510,00	1199,94
1511,00	1213,41
1512,00	1206,51
1513,00	1205,83
1514,00	1208,09
1515,00	1209,38
1516,00	1268,80
1517,00	1225,18
1518,00	1209,69
1519,00	1208,58
1520,00	1214,90
1521,00	1207,90
1522,00	1208,56
1523,00	1205,08
1524,00	1203,90
1525,00	1200,40
1526,00	1199,97
1527,00	1197,40
1528,00	1208,72
1529,00	1196,99
1530,00	1199,61
1531,00	1202,44
1532,00	1201,75
1533,00	1199,57
1534,00	1205,75
1535,00	1199,44
1536,00	1210,08
1537,00	1217,72
1538,00	1215,50
1539,00	1216,98
1540,00	1211,75
1541,00	1212,29
1542,00	1203,84
1543,00	1204,51
1544,00	1214,10
1545,00	1213,02
1546,00	1205,96
1547,00	1206,00
1548,00	1204,06
1549,00	1201,49
1550,00	1205,51
1551,00	1208,45
1552,00	1203,52
1553,00	1199,43
1554,00	1200,31
1555,00	1199,65
1556,00	1200,32
1557,00	1215,88
1558,00	1206,12
1559,00	1203,24
1560,00	1203,97
1561,00	1203,40
1562,00	1219,20
1563,00	1205,33
1564,00	1201,32
1565,00	1206,34
1566,00	1208,34
1567,00	1216,10
1568,00	1207,53
1569,00	1210,80
1570,00	1208,58
1571,00	1211,85
1572,00	1214,71
1573,00	1210,86
1574,00	1221,66
1575,00	1205,10
1576,00	1200,23
1577,00	1203,40
1578,00	1214,60
1579,00	1207,10
1580,00	1202,46
1581,00	1204,40
1582,00	1199,88
1583,00	1226,45
1584,00	1209,02
1585,00	1197,90
1586,00	1211,69
1587,00	1212,77
1588,00	1219,33
1589,00	1206,51
1590,00	1209,89
1591,00	1208,04
1592,00	1228,65
1593,00	1203,82
1594,00	1209,28
1595,00	1203,28
1596,00	1206,84
1597,00	1199,27
1598,00	1202,60
1599,00	1209,70
1600,00	1196,59
1601,00	1214,49
1602,00	1219,83
1603,00	1210,87
1604,00	1203,85
1605,00	1225,54
1606,00	1198,38
1607,00	1205,77
1608,00	1201,91
1609,00	1206,43
1610,00	1196,10
1611,00	1222,19
1612,00	1203,97
1613,00	1209,56
1614,00	1204,60
1615,00	1201,28
1616,00	1212,54
1617,00	1209,62
1618,00	1212,63
1619,00	1203,69
1620,00	1220,23
1621,00	1212,72
1622,00	1206,27
1623,00	1220,40
1624,00	1215,77
1625,00	1208,45
1626,00	1229,63
1627,00	1211,89
1628,00	1205,65
1629,00	1292,98
1630,00	1216,10
1631,00	1203,96
1632,00	1212,26
1633,00	1206,68
1634,00	1209,26
1635,00	1206,53
1636,00	1205,88
1637,00	1204,95
1638,00	1199,79
1639,00	1202,87
1640,00	1210,18
1641,00	1221,15
1642,00	1220,42
1643,00	1203,17
1644,00	1231,73
1645,00	1214,70
1646,00	1206,62
1647,00	1218,23
1648,00	1210,90
1649,00	1206,86
1650,00	1232,52
1651,00	1220,77
1652,00	1201,67
1653,00	1204,66
1654,00	1204,92
1655,00	1206,95
1656,00	1200,72
1657,00	1218,73
1658,00	1204,83
1659,00	1213,17
1660,00	1214,51
1661,00	1219,51
1662,00	1209,86
1663,00	1214,59
1664,00	1211,19
1665,00	1202,87
1666,00	1209,91
1667,00	1207,30
1668,00	1201,39
1669,00	1202,24
1670,00	1210,74
1671,00	1203,19
1672,00	1196,70
1673,00	1214,50
1674,00	1213,60
1675,00	1222,12
1676,00	1208,51
1677,00	1206,21
1678,00	1208,95
1679,00	1209,79
1680,00	1210,76
1681,00	1212,79
1682,00	1239,18
1683,00	1214,55
1684,00	1218,84
1685,00	1213,43
1686,00	1201,65
1687,00	1202,56
1688,00	1215,42
1689,00	1202,43
1690,00	1201,52
1691,00	1200,71
1692,00	1203,32
1693,00	1225,44
1694,00	1203,64
1695,00	1207,96
1696,00	1208,58
1697,00	1209,84
1698,00	1199,54
1699,00	1207,70
1700,00	1209,81
1701,00	1214,21
1702,00	1202,20
1703,00	1198,24
1704,00	1201,00
1705,00	1214,68
1706,00	1202,48
1707,00	1199,13
1708,00	1202,48
1709,00	1214,28
1710,00	1207,69
1711,00	1201,67
1712,00	1207,44
1713,00	1230,56
1714,00	1211,28
1715,00	1205,85
1716,00	1223,74
1717,00	1206,64
1718,00	1225,66
1719,00	1218,44
1720,00	1204,93
1721,00	1210,46
1722,00	1206,85
1723,00	1215,37
1724,00	1222,78
1725,00	1208,81
1726,00	1209,52
1727,00	1200,63
1728,00	1222,46
1729,00	1201,04
1730,00	1225,88
1731,00	1208,82
1732,00	1232,51
1733,00	1213,38
1734,00	1199,24
1735,00	1206,30
1736,00	1202,67
1737,00	1201,72
1738,00	1208,58
1739,00	1217,93
1740,00	1213,80
1741,00	1237,10
1742,00	1211,58
1743,00	1202,16
1744,00	1201,48
1745,00	1204,58
1746,00	1206,39
1747,00	1205,23
1748,00	1215,73
1749,00	1222,70
1750,00	1214,51
1751,00	1237,08
1752,00	1207,46
1753,00	1200,21
1754,00	1205,60
1755,00	1211,39
1756,00	1204,07
1757,00	1223,32
1758,00	1202,89
1759,00	1199,02
1760,00	1202,76
1761,00	1214,00
1762,00	1210,27
1763,00	1200,03
1764,00	1214,02
1765,00	1199,79
1766,00	1199,98
1767,00	1199,61
1768,00	1201,45
1769,00	1212,54
1770,00	1201,24
1771,00	1203,00
1772,00	1225,66
1773,00	1213,36
1774,00	1199,41
1775,00	1203,56
1776,00	1207,00
1777,00	1199,08
1778,00	1202,18
1779,00	1198,66
1780,00	1198,35
1781,00	1197,28
1782,00	1201,54
1783,00	1212,15
1784,00	1206,51
1785,00	1207,55
1786,00	1214,78
1787,00	1200,89
1788,00	1206,87
1789,00	1208,85
1790,00	1222,93
1791,00	1202,58
1792,00	1209,86
1793,00	1206,30
1794,00	1198,79
1795,00	1202,57
1796,00	1199,83
1797,00	1197,95
1798,00	1205,07
1799,00	1203,33
1800,00	1214,29
1801,00	1206,29
1802,00	1219,71
1803,00	1206,63
1804,00	1211,40
1805,00	1206,12
1806,00	1210,82
1807,00	1206,29
1808,00	1199,88
1809,00	1207,15
1810,00	1215,98
1811,00	1209,82
1812,00	1205,39
1813,00	1203,67
1814,00	1206,88
1815,00	1212,86
1816,00	1240,51
1817,00	1204,66
1818,00	1264,96
1819,00	1223,05
1820,00	1219,63
1821,00	1202,37
1822,00	1201,95
1823,00	1202,12
1824,00	1205,97
1825,00	1227,26
1826,00	1204,27
1827,00	1224,25
1828,00	1234,30
1829,00	1211,81
1830,00	1215,23
1831,00	1202,87
1832,00	1200,84
1833,00	1196,53
1834,00	1199,04
1835,00	1207,92
1836,00	1200,18
1837,00	1200,47
1838,00	1209,32
1839,00	1222,59
1840,00	1238,93
1841,00	1213,76
1842,00	1212,86
1843,00	1215,29
1844,00	1229,12
1845,00	1215,10
1846,00	1199,94
1847,00	1200,99
1848,00	1209,58
1849,00	1209,18
1850,00	1206,82
1851,00	1211,52
1852,00	1201,53
1853,00	1201,27
1854,00	1203,75
1855,00	1199,49
1856,00	1200,68
1857,00	1205,77
1858,00	1228,60
1859,00	1199,75
1860,00	1208,96
1861,00	1260,04
1862,00	1206,18
1863,00	1207,27
1864,00	1201,40
1865,00	1208,61
1866,00	1213,15
1867,00	1200,74
1868,00	1209,02
1869,00	1203,63
1870,00	1206,65
1871,00	1204,69
1872,00	1205,92
1873,00	1203,93
1874,00	1214,59
1875,00	1204,68
1876,00	1201,08
1877,00	1208,69
1878,00	1221,10
1879,00	1214,18
1880,00	1199,60
1881,00	1210,00
1882,00	1202,92
1883,00	1207,88
1884,00	1202,10
1885,00	1208,64
1886,00	1211,29
1887,00	1197,79
1888,00	1202,58
1889,00	1207,44
1890,00	1197,39
1891,00	1213,81
1892,00	1222,57
1893,00	1206,49
1894,00	1211,89
1895,00	1210,32
1896,00	1217,44
1897,00	1245,39
1898,00	1203,38
1899,00	1208,50
1900,00	1199,06
1901,00	1208,06
1902,00	1207,55
1903,00	1226,68
1904,00	1211,16
1905,00	1263,91
1906,00	1205,85
1907,00	1202,17
1908,00	1262,70
1909,00	1203,94
1910,00	1204,63
1911,00	1209,21
1912,00	1212,79
1913,00	1227,02
1914,00	1205,44
1915,00	1205,91
1916,00	1214,95
1917,00	1210,36
1918,00	1206,77
1919,00	1207,53
1920,00	1202,39
1921,00	1210,76
1922,00	1205,87
1923,00	1210,34
1924,00	1209,13
1925,00	1201,01
1926,00	1207,28
1927,00	1215,88
1928,00	1221,52
1929,00	1212,23
1930,00	1200,77
1931,00	1209,85
1932,00	1231,59
1933,00	1210,45
1934,00	1200,03
1935,00	1200,44
1936,00	1207,05
1937,00	1202,28
1938,00	1211,96
1939,00	1204,59
1940,00	1230,94
1941,00	1201,36
1942,00	1203,84
1943,00	1202,09
1944,00	1205,23
1945,00	1201,45
1946,00	1196,34
1947,00	1198,35
1948,00	1234,02
1949,00	1199,47
1950,00	1216,14
1951,00	1205,50
1952,00	1203,70
1953,00	1199,57
1954,00	1215,03
1955,00	1203,94
1956,00	1206,49
1957,00	1212,47
1958,00	1199,45
1959,00	1208,12
1960,00	1199,41
1961,00	1216,66
1962,00	1197,24
1963,00	1210,18
1964,00	1201,99
1965,00	1209,12
1966,00	1200,79
1967,00	1225,05
1968,00	1202,53
1969,00	1200,03
1970,00	1211,75
1971,00	1218,69
1972,00	1207,20
1973,00	1214,01
1974,00	1212,85
1975,00	1214,27
1976,00	1212,86
1977,00	1211,78
1978,00	1208,95
1979,00	1212,06
1980,00	1266,91
1981,00	1211,99
1982,00	1201,98
1983,00	1205,56
1984,00	1211,26
1985,00	1224,49
1986,00	1200,40
1987,00	1201,50
1988,00	1204,56
1989,00	1208,30
1990,00	1226,97
1991,00	1211,11
1992,00	1252,62
1993,00	1221,79
1994,00	1210,59
1995,00	1198,83
1996,00	1211,19
1997,00	1210,93
1998,00	1212,62
1999,00	1199,49
2000,00	1198,90
2001,00	1206,42
2002,00	1222,76
2003,00	1197,72
2004,00	1220,17
2005,00	1200,76
2006,00	1231,08
2007,00	1205,96
2008,00	1199,12
2009,00	1224,55
2010,00	1201,64
2011,00	1200,24
2012,00	1206,19
2013,00	1203,04
2014,00	1206,97
2015,00	1199,23
2016,00	1202,96
2017,00	1205,60
2018,00	1208,43
2019,00	1201,97
2020,00	1205,30
2021,00	1211,37
2022,00	1205,30
2023,00	1206,13
2024,00	1203,61
2025,00	1220,65
2026,00	1206,25
2027,00	1203,33
2028,00	1210,36
2029,00	1201,00
2030,00	1199,29
2031,00	1202,90
2032,00	1201,92
2033,00	1208,67
2034,00	1226,12
2035,00	1211,01
2036,00	1209,42
2037,00	1202,19
2038,00	1208,44
2039,00	1205,91
2040,00	1209,05
2041,00	1210,07
2042,00	1200,56
2043,00	1209,13
2044,00	1214,57
2045,00	1202,43
2046,00	1202,43
2047,00	1202,43
>>>>>End Processed Spectral Data<<<<<
