Zeit t / s,Spannung U_A1 / V,Spannung U_B1 / V
0,0.1895,0.005
0.5,0.1895,0.005
1,0.1895,0.005
1.5,0.1895,0.005
2,0.1895,0.005
2.5,0.1895,0.005
3,0.1895,0.005
3.5,0.1895,0.005
4,0.1895,0.005
4.501,0.1895,0.005
5,0.1895,0.005
5.502,0.1895,0.005
6,0.1895,0.005
6.5,0.1895,0.005
7,0.1895,0.005
7.5,0.1895,0.005
8,0.1895,0.005
8.5,0.1895,0.005
9,0.1895,0
9.499,0.1895,0.005
9.999,0.1895,0.005
10.501,0.1895,0.005
11,0.1895,0.005
11.5,0.1895,0.005
12,0.1895,0.005
12.501,0.1895,0.005
12.999,0.189,0
13.5,0.189,0.005
14,0.189,0.005
14.5,0.189,0
15,0.189,0
15.5,0.189,0
15.999,0.1885,0.005
16.5,0.1885,0
17.003,0.1885,0.005
17.501,0.1885,0
18,0.188,0.005
18.5,0.188,0
19,0.188,0
19.5,0.1875,0
20,0.1875,0.005
20.499,0.1875,0
21,0.187,0
21.5,0.187,0
22,0.1865,0
22.5,0.1865,0
22.999,0.1865,0
23.499,0.186,0
23.999,0.186,0
24.501,0.1855,0
25,0.1855,0
25.5,0.1855,0
26,0.185,0
26.501,0.185,0
27.001,0.1845,0
27.5,0.1845,0
28,0.184,0
28.5,0.184,0
29,0.1835,0
29.501,0.1835,0
30,0.183,0
30.499,0.183,0
31,0.1825,0
31.5,0.1825,0
31.999,0.182,0
32.5,0.182,0
33,0.182,0
33.5,0.1815,0
33.999,0.1815,0
34.5,0.181,0
35,0.181,0
35.499,0.1805,0
36,0.1805,0
36.499,0.18,0
37,0.18,0
37.5,0.1795,0
38,0.1795,0
38.501,0.179,0
39,0.179,0
39.5,0.1785,0
40,0.1785,0
40.5,0.178,0
41,0.178,0
41.5,0.1775,0
41.999,0.177,0
42.5,0.177,0
43,0.1765,0
43.5,0.1765,0
43.999,0.1765,0
44.499,0.176,0
44.999,0.176,0
45.5,0.1755,0
46,0.1755,0
46.5,0.175,0
47,0.1745,0
47.5,0.1745,0
48,0.174,0
48.499,0.174,0
48.999,0.1735,0
49.5,0.1735,0
50,0.173,0
50.5,0.173,0
51,0.1725,0
51.5,0.1725,0
51.999,0.172,0
52.5,0.172,0
53,0.1715,0
53.499,0.1715,0
54,0.171,0
54.5,0.171,0
55,0.1705,0
55.501,0.1705,0
56,0.17,0
56.5,0.17,0
57.001,0.1695,0
57.5,0.1695,0
58,0.169,0
58.499,0.169,0.005
59,0.1685,0.005
59.5,0.1685,0.01
60.001,0.168,0.01
60.5,0.168,0.015
61.001,0.1675,0.015
61.5,0.1675,0.025
62.001,0.167,0.025
62.5,0.167,0.035
62.999,0.1665,0.04
63.501,0.1665,0.045
64,0.166,0.05
64.499,0.166,0.06
65,0.1655,0.065
65.5,0.1655,0.07
66,0.165,0.08
66.499,0.165,0.09
67,0.1645,0.095
67.501,0.1645,0.105
67.999,0.164,0.115
68.501,0.164,0.12
69.001,0.1635,0.13
69.5,0.1635,0.14
70,0.1635,0.15
70.5,0.163,0.16
71,0.163,0.17
71.499,0.1625,0.18
72,0.1625,0.19
72.499,0.162,0.205
72.999,0.162,0.215
73.501,0.1615,0.225
74,0.1615,0.24
74.5,0.161,0.25
75,0.161,0.265
75.5,0.1605,0.275
76,0.1605,0.285
76.499,0.16,0.3
77,0.16,0.31
77.5,0.16,0.325
78,0.1595,0.335
78.501,0.1595,0.35
79,0.159,0.36
79.5,0.159,0.37
80,0.1585,0.38
80.5,0.1585,0.39
81,0.158,0.4
81.5,0.158,0.405
82,0.1575,0.415
82.5,0.1575,0.425
83,0.157,0.43
83.5,0.157,0.435
84,0.157,0.445
84.5,0.1565,0.45
84.999,0.1565,0.455
85.5,0.156,0.46
86,0.156,0.465
86.501,0.1555,0.47
87.001,0.1555,0.475
87.5,0.155,0.48
88,0.155,0.48
88.5,0.1545,0.485
89,0.1545,0.49
89.5,0.1545,0.49
90,0.154,0.495
90.499,0.154,0.5
90.999,0.1535,0.5
91.5,0.1535,0.505
91.999,0.153,0.505
92.5,0.153,0.51
93,0.1525,0.51
93.499,0.1525,0.51
94,0.1525,0.515
94.499,0.152,0.515
95,0.152,0.515
95.5,0.1515,0.52
96,0.1515,0.52
96.5,0.151,0.52
97,0.151,0.525
97.5,0.151,0.525
97.999,0.1505,0.525
98.5,0.1505,0.525
98.999,0.15,0.53
99.5,0.15,0.53
100,0.1495,0.535
100.501,0.1495,0.535
101,0.1495,0.535
101.499,0.149,0.535
101.999,0.149,0.535
102.5,0.1485,0.54
103.001,0.1485,0.54
103.499,0.148,0.54
104,0.148,0.54
104.5,0.148,0.545
105,0.1475,0.545
105.499,0.1475,0.545
106,0.147,0.545
106.499,0.147,0.545
107,0.147,0.55
107.5,0.1465,0.55
108,0.1465,0.55
108.5,0.146,0.55
109.001,0.146,0.55
109.5,0.1455,0.555
109.999,0.1455,0.555
110.5,0.1455,0.555
110.999,0.145,0.555
111.501,0.145,0.555
111.999,0.1445,0.56
112.5,0.1445,0.56
112.999,0.1445,0.56
113.499,0.144,0.56
114,0.144,0.56
114.499,0.1435,0.56
115,0.1435,0.565
115.499,0.1435,0.565
115.999,0.143,0.565
116.499,0.143,0.565
117.001,0.1425,0.565
117.499,0.1425,0.57
118,0.1425,0.57
118.5,0.142,0.57
119,0.142,0.57
119.499,0.142,0.57
120,0.1415,0.57
120.5,0.1415,0.57
121,0.141,0.575
121.5,0.141,0.575
122,0.141,0.575
122.5,0.1405,0.575
123,0.1405,0.575
123.5,0.14,0.58
124.001,0.14,0.58
124.5,0.14,0.58
124.999,0.1395,0.58
125.501,0.1395,0.58
126,0.1395,0.58
126.5,0.139,0.58
127,0.139,0.58
127.499,0.1385,0.585
127.999,0.1385,0.585
128.5,0.1385,0.585
128.999,0.138,0.585
129.5,0.138,0.585
130,0.1375,0.59
130.501,0.1375,0.585
131,0.1375,0.59
131.5,0.137,0.59
132,0.137,0.59
132.5,0.137,0.59
133,0.1365,0.59
133.5,0.1365,0.59
133.999,0.1365,0.59
134.499,0.136,0.59
135,0.136,0.59
135.501,0.1355,0.59
136,0.1355,0.59
136.5,0.1355,0.595
137,0.135,0.595
137.499,0.135,0.595
138,0.135,0.595
138.499,0.1345,0.595
139,0.1345,0.595
139.501,0.1345,0.6
140,0.134,0.595
140.5,0.134,0.595
140.999,0.1335,0.595
141.5,0.1335,0.6
141.999,0.1335,0.6
142.499,0.133,0.6
142.999,0.133,0.6
143.5,0.133,0.6
144,0.1325,0.6
144.5,0.1325,0.6
145.001,0.1325,0.6
145.501,0.132,0.605
146,0.132,0.605
146.499,0.132,0.605
147,0.1315,0.605
147.5,0.1315,0.605
148,0.1315,0.605
148.5,0.131,0.605
149,0.131,0.61
149.5,0.1305,0.61
149.999,0.1305,0.61
150.499,0.1305,0.61
151,0.13,0.61
151.501,0.13,0.61
152,0.13,0.61
152.499,0.1295,0.61
153,0.1295,0.61
153.499,0.1295,0.615
154,0.129,0.615
154.499,0.129,0.615
155,0.129,0.615
155.501,0.129,0.615
155.999,0.1285,0.615
156.501,0.1285,0.615
156.999,0.1285,0.62
157.5,0.128,0.62
158,0.128,0.62
158.5,0.128,0.62
159.001,0.1275,0.62
159.5,0.1275,0.62
159.999,0.1275,0.62
160.501,0.127,0.62
160.999,0.127,0.62
161.5,0.127,0.62
161.999,0.127,0.62
162.5,0.1265,0.625
163,0.1265,0.625
163.5,0.126,0.625
163.999,0.126,0.625
164.5,0.126,0.625
164.999,0.126,0.625
165.5,0.1255,0.625
166,0.1255,0.625
166.5,0.125,0.625
167,0.125,0.625
167.5,0.125,0.625
168.001,0.125,0.63
168.5,0.1245,0.63
169,0.1245,0.63
169.5,0.1245,0.63
170.001,0.124,0.63
170.5,0.124,0.63
171,0.124,0.63
171.5,0.124,0.63
172,0.1235,0.63
172.5,0.1235,0.63
173,0.1235,0.635
173.499,0.123,0.63
174,0.123,0.635
174.5,0.123,0.635
175,0.1225,0.635
175.501,0.1225,0.635
176,0.1225,0.635
176.5,0.122,0.635
177,0.122,0.635
177.499,0.122,0.635
177.999,0.1215,0.635
178.5,0.1215,0.635
179.001,0.1215,0.635
179.5,0.1215,0.635
179.999,0.121,0.635
180.5,0.121,0.64
181,0.121,0.64
181.5,0.1205,0.64
182,0.1205,0.64
182.499,0.1205,0.64
183,0.12,0.64
183.501,0.12,0.64
184,0.12,0.64
184.499,0.1195,0.64
184.999,0.1195,0.64
185.501,0.1195,0.64
186,0.1195,0.64
186.5,0.119,0.64
187,0.119,0.645
187.5,0.119,0.645
188,0.1185,0.645
188.499,0.1185,0.645
188.999,0.1185,0.645
189.499,0.118,0.645
190.001,0.118,0.645
190.5,0.118,0.645
191,0.118,0.645
191.499,0.1175,0.645
192,0.1175,0.645
192.5,0.1175,0.645
193,0.117,0.645
193.5,0.117,0.645
194,0.117,0.65
194.499,0.117,0.65
195,0.1165,0.65
195.5,0.1165,0.65
196,0.1165,0.65
196.5,0.116,0.65
197,0.116,0.65
197.5,0.116,0.65
198,0.1155,0.65
198.499,0.1155,0.65
199,0.1155,0.65
199.501,0.1155,0.65
200,0.115,0.65
200.5,0.115,0.655
201,0.115,0.655
201.5,0.1145,0.655
202,0.1145,0.655
202.499,0.1145,0.655
203.001,0.1145,0.655
203.499,0.114,0.655
204,0.114,0.655
204.501,0.114,0.655
205,0.1135,0.66
205.5,0.1135,0.66
206,0.1135,0.66
206.5,0.1135,0.66
207,0.113,0.66
207.499,0.113,0.66
208,0.113,0.66
208.499,0.113,0.66
209,0.1125,0.665
209.5,0.1125,0.66
210,0.1125,0.665
210.5,0.112,0.665
210.999,0.112,0.665
211.5,0.112,0.665
212,0.112,0.665
212.5,0.1115,0.665
213,0.1115,0.665
213.499,0.1115,0.665
214,0.1115,0.665
214.5,0.111,0.665
215,0.111,0.665
215.5,0.111,0.665
215.999,0.1105,0.665
216.5,0.1105,0.665
217,0.1105,0.665
217.5,0.1105,0.67
218,0.11,0.67
218.499,0.11,0.665
219.001,0.11,0.67
219.499,0.1095,0.67
220,0.1095,0.67
220.5,0.1095,0.67
221,0.1095,0.67
221.5,0.109,0.67
221.999,0.109,0.67
222.499,0.109,0.67
222.999,0.109,0.67
223.5,0.1085,0.67
224,0.1085,0.67
224.5,0.1085,0.67
225,0.1085,0.67
225.5,0.108,0.67
226,0.108,0.67
226.5,0.108,0.67
227,0.108,0.67
227.499,0.1075,0.67
228,0.1075,0.67
228.499,0.1075,0.675
229,0.107,0.675
229.5,0.107,0.675
230,0.107,0.675
230.5,0.107,0.675
230.999,0.1065,0.675
231.499,0.1065,0.675
231.999,0.1065,0.675
232.5,0.1065,0.675
233,0.106,0.675
233.501,0.106,0.675
233.999,0.106,0.68
234.5,0.106,0.68
234.999,0.1055,0.68
235.5,0.1055,0.68
236,0.1055,0.68
236.499,0.1055,0.68
237,0.105,0.68
237.5,0.105,0.68
237.999,0.105,0.68
238.5,0.105,0.685
239,0.1045,0.685
239.5,0.1045,0.68
239.999,0.1045,0.685
240.499,0.1045,0.685
240.999,0.104,0.685
241.5,0.104,0.685
242,0.104,0.685
242.501,0.104,0.685
243,0.1035,0.685
243.5,0.1035,0.685
243.999,0.1035,0.685
244.499,0.1035,0.69
245,0.103,0.69
245.5,0.103,0.69
246,0.103,0.69
246.499,0.103,0.69
247,0.1025,0.69
247.499,0.1025,0.69
248,0.1025,0.69
248.5,0.1025,0.69
249,0.102,0.69
249.499,0.102,0.69
249.999,0.102,0.69
250.5,0.102,0.69
250.999,0.1015,0.69
251.5,0.1015,0.69
251.999,0.1015,0.69
252.5,0.1015,0.69
253,0.101,0.69
253.499,0.101,0.69
254,0.101,0.69
254.499,0.101,0.69
255,0.1005,0.695
255.5,0.1005,0.69
255.999,0.1005,0.69
256.5,0.1005,0.695
256.999,0.1,0.695
257.5,0.1,0.69
258,0.1,0.69
258.5,0.1,0.695
259,0.0995,0.695
259.5,0.0995,0.695
260,0.0995,0.695
260.499,0.0995,0.695
261,0.0995,0.695
261.499,0.099,0.695
261.999,0.099,0.695
262.501,0.099,0.695
262.999,0.099,0.695
263.5,0.0985,0.695
263.999,0.0985,0.695
264.5,0.0985,0.695
265,0.0985,0.695
265.5,0.098,0.695
265.999,0.098,0.695
266.5,0.098,0.695
267.001,0.098,0.7
267.501,0.0975,0.7
267.999,0.0975,0.7
268.5,0.0975,0.7
269,0.0975,0.7
269.5,0.0975,0.7
270,0.097,0.7
270.501,0.097,0.7
270.999,0.097,0.7
271.499,0.097,0.7
272,0.0965,0.7
272.5,0.0965,0.7
273,0.0965,0.705
273.499,0.0965,0.705
273.999,0.0965,0.705
274.5,0.096,0.705
274.999,0.096,0.705
275.5,0.096,0.705
275.999,0.096,0.705
276.5,0.0955,0.705
276.999,0.0955,0.705
277.5,0.0955,0.705
278,0.0955,0.705
278.501,0.095,0.705
278.999,0.095,0.71
279.5,0.095,0.71
280,0.095,0.71
280.5,0.095,0.71
281,0.0945,0.71
281.5,0.0945,0.71
281.999,0.0945,0.71
282.499,0.0945,0.71
283.001,0.094,0.71
283.499,0.094,0.71
284,0.094,0.71
284.5,0.094,0.71
285,0.094,0.71
285.499,0.0935,0.71
286,0.0935,0.715
286.499,0.0935,0.71
287,0.0935,0.71
287.499,0.093,0.715
288,0.093,0.715
288.499,0.093,0.715
289,0.093,0.715
289.5,0.093,0.715
290,0.0925,0.715
290.5,0.0925,0.715
291,0.0925,0.715
291.501,0.0925,0.715
292.001,0.092,0.715
292.5,0.092,0.715
293,0.092,0.715
293.5,0.092,0.715
293.999,0.092,0.715
294.5,0.0915,0.715
295,0.0915,0.715
295.5,0.0915,0.715
296,0.0915,0.715
296.5,0.091,0.715
296.999,0.091,0.715
297.499,0.091,0.715
298.001,0.091,0.72
298.5,0.091,0.72
298.999,0.0905,0.715
299.499,0.0905,0.72
300.001,0.0905,0.72
300.5,0.0905,0.72
301,0.0905,0.72
301.499,0.09,0.72
302,0.09,0.72
302.501,0.09,0.72
302.999,0.09,0.72
303.5,0.0895,0.72
304,0.0895,0.72
304.501,0.0895,0.72
304.999,0.0895,0.72
305.5,0.0895,0.72
306.001,0.089,0.72
306.5,0.089,0.72
307.001,0.089,0.72
307.501,0.089,0.72
308,0.089,0.725
308.5,0.0885,0.72
309,0.0885,0.725
309.501,0.0885,0.725
310,0.0885,0.72
310.5,0.0885,0.725
310.999,0.088,0.725
311.5,0.088,0.725
312,0.088,0.725
312.5,0.088,0.725
312.999,0.0875,0.725
313.499,0.0875,0.725
314,0.0875,0.725
314.5,0.0875,0.725
315,0.0875,0.725
315.5,0.087,0.725
316,0.087,0.725
316.501,0.087,0.725
317,0.087,0.725
317.5,0.087,0.725
318,0.0865,0.725
318.499,0.0865,0.725
319.001,0.0865,0.73
319.5,0.0865,0.73
320,0.0865,0.73
320.5,0.086,0.73
320.999,0.086,0.73
321.5,0.086,0.73
322,0.086,0.73
322.5,0.086,0.73
323,0.0855,0.73
323.5,0.0855,0.73
324,0.0855,0.73
324.5,0.0855,0.73
325,0.0855,0.73
325.499,0.085,0.73
326,0.085,0.73
326.5,0.085,0.73
326.999,0.085,0.73
327.499,0.085,0.73
328,0.0845,0.735
328.5,0.0845,0.735
328.999,0.0845,0.735
329.5,0.0845,0.735
330,0.0845,0.735
330.5,0.084,0.735
331,0.084,0.735
331.5,0.084,0.735
332,0.084,0.735
332.499,0.0835,0.735
332.999,0.0835,0.735
333.499,0.0835,0.735
334,0.0835,0.735
334.5,0.0835,0.735
334.999,0.083,0.735
335.5,0.083,0.735
335.999,0.083,0.735
336.5,0.083,0.74
337,0.0825,0.74
337.499,0.0825,0.74
337.999,0.0825,0.74
338.499,0.0825,0.74
339,0.0825,0.74
339.5,0.082,0.74
340.001,0.082,0.74
340.5,0.082,0.74
341.001,0.082,0.74
341.499,0.0815,0.74
341.999,0.0815,0.74
342.499,0.0815,0.74
343,0.0815,0.74
343.499,0.0815,0.74
343.999,0.081,0.74
344.5,0.081,0.74
345,0.081,0.74
345.499,0.081,0.74
346,0.081,0.74
346.5,0.0805,0.745
347.001,0.0805,0.745
347.5,0.0805,0.745
348,0.0805,0.745
348.499,0.0805,0.745
349,0.08,0.745
349.499,0.08,0.745
350,0.08,0.745
350.501,0.08,0.745
350.999,0.0795,0.745
351.5,0.0795,0.745
351.999,0.0795,0.745
352.5,0.0795,0.745
353,0.0795,0.745
353.5,0.079,0.745
354,0.079,0.745
354.5,0.079,0.745
355,0.079,0.745
355.5,0.079,0.745
356.001,0.0785,0.745
356.501,0.0785,0.75
357,0.0785,0.75
357.499,0.0785,0.75
358,0.0785,0.75
358.501,0.078,0.75
359,0.078,0.75
359.5,0.078,0.75
360,0.078,0.75
360.5,0.078,0.75
361.001,0.0775,0.75
361.501,0.0775,0.75
362,0.0775,0.75
362.499,0.0775,0.75
363,0.0775,0.75
363.499,0.077,0.75
364,0.077,0.75
364.5,0.077,0.75
364.999,0.077,0.755
365.5,0.077,0.75
366,0.0765,0.755
366.5,0.0765,0.755
366.999,0.0765,0.755
367.5,0.0765,0.755
368,0.0765,0.755
368.5,0.0765,0.755
369,0.076,0.755
369.5,0.076,0.755
369.999,0.076,0.755
370.5,0.076,0.755
371,0.076,0.755
371.499,0.0755,0.755
372,0.0755,0.755
372.499,0.0755,0.755
372.999,0.0755,0.76
373.5,0.0755,0.755
373.999,0.075,0.755
374.501,0.075,0.755
375,0.075,0.76
375.5,0.075,0.76
376,0.075,0.76
376.5,0.0745,0.76
377,0.0745,0.76
377.499,0.0745,0.76
378,0.0745,0.76
378.5,0.0745,0.76
378.999,0.0745,0.76
379.5,0.074,0.76
379.999,0.074,0.76
380.5,0.074,0.76
381,0.074,0.76
381.5,0.074,0.76
381.999,0.0735,0.76
382.5,0.0735,0.76
382.999,0.0735,0.765
383.499,0.0735,0.765
384.001,0.0735,0.765
384.499,0.0735,0.765
385,0.073,0.765
385.499,0.073,0.765
386,0.073,0.765
386.5,0.073,0.765
387,0.073,0.765
387.5,0.0725,0.765
387.999,0.0725,0.765
388.5,0.0725,0.765
389,0.0725,0.765
389.499,0.0725,0.765
389.999,0.0725,0.765
390.5,0.072,0.765
391,0.072,0.765
391.5,0.072,0.765
392,0.072,0.765
392.5,0.072,0.77
392.999,0.0715,0.765
393.499,0.0715,0.765
394,0.0715,0.765
394.5,0.0715,0.765
394.999,0.0715,0.77
395.5,0.0715,0.77
396,0.071,0.77
396.5,0.071,0.77
396.999,0.071,0.77
397.5,0.071,0.77
398,0.071,0.77
398.5,0.0705,0.77
398.999,0.0705,0.77
399.499,0.0705,0.77
399.999,0.0705,0.77
400.499,0.0705,0.77
401,0.0705,0.77
401.499,0.07,0.77
402,0.07,0.77
402.5,0.07,0.77
402.999,0.07,0.77
403.501,0.07,0.77
404.001,0.07,0.77
404.499,0.0695,0.77
404.999,0.0695,0.77
405.5,0.0695,0.77
406,0.0695,0.77
406.499,0.0695,0.77
407,0.0695,0.77
407.499,0.069,0.77
407.999,0.069,0.77
408.5,0.069,0.77
408.999,0.069,0.77
409.499,0.069,0.77
410,0.069,0.77
410.5,0.0685,0.77
411,0.0685,0.775
411.5,0.0685,0.775
412,0.0685,0.775
412.499,0.0685,0.77
413,0.0685,0.775
413.5,0.068,0.775
414.001,0.068,0.775
414.499,0.068,0.775
415.001,0.068,0.775
415.499,0.068,0.775
416,0.0675,0.775
416.5,0.0675,0.775
416.999,0.0675,0.775
417.5,0.0675,0.775
418,0.0675,0.775
418.5,0.0675,0.775
419,0.067,0.775
419.499,0.067,0.775
420.001,0.067,0.775
420.5,0.067,0.775
421,0.067,0.775
421.5,0.067,0.775
422,0.067,0.775
422.5,0.0665,0.775
422.999,0.0665,0.78
423.501,0.0665,0.775
423.999,0.0665,0.78
424.5,0.0665,0.78
425,0.0665,0.78
425.499,0.066,0.78
426,0.066,0.78
426.499,0.066,0.78
427,0.066,0.78
427.5,0.066,0.78
428,0.066,0.78
428.5,0.0655,0.78
428.999,0.0655,0.78
429.5,0.0655,0.78
430,0.0655,0.78
430.499,0.0655,0.78
431,0.0655,0.78
431.499,0.065,0.78
432,0.065,0.78
432.499,0.065,0.78
433,0.065,0.78
433.501,0.065,0.78
434,0.065,0.78
434.499,0.0645,0.785
435,0.0645,0.78
435.5,0.0645,0.785
435.999,0.0645,0.785
436.499,0.0645,0.785
437,0.0645,0.785
437.499,0.0645,0.785
438,0.064,0.785
438.5,0.064,0.785
439.001,0.064,0.785
439.5,0.064,0.785
440,0.064,0.785
440.5,0.064,0.785
441,0.0635,0.785
441.5,0.0635,0.785
442,0.0635,0.785
442.5,0.0635,0.785
443,0.0635,0.785
443.5,0.0635,0.79
444,0.063,0.785
444.5,0.063,0.79
445,0.063,0.785
445.499,0.063,0.79
446,0.063,0.79
446.499,0.063,0.79
447,0.063,0.79
447.5,0.0625,0.79
447.999,0.0625,0.79
448.5,0.0625,0.79
448.999,0.0625,0.79
449.5,0.0625,0.79
449.999,0.0625,0.79
450.499,0.062,0.79
451.001,0.062,0.79
451.5,0.062,0.79
451.999,0.062,0.79
452.5,0.062,0.79
453,0.062,0.79
453.5,0.062,0.79
454,0.0615,0.79
454.502,0.0615,0.79
455,0.0615,0.79
455.499,0.0615,0.79
456,0.0615,0.795
456.499,0.0615,0.795
456.999,0.061,0.795
457.499,0.061,0.79
458,0.061,0.795
458.499,0.061,0.79
459,0.061,0.795
459.499,0.061,0.795
460,0.061,0.795
460.5,0.0605,0.795
461,0.0605,0.795
461.5,0.0605,0.795
462,0.0605,0.795
462.5,0.0605,0.795
463,0.0605,0.795
463.5,0.0605,0.795
463.999,0.06,0.795
464.499,0.06,0.795
464.999,0.06,0.795
465.5,0.06,0.795
466,0.06,0.795
466.5,0.06,0.795
467,0.0595,0.795
467.499,0.0595,0.795
467.999,0.0595,0.795
468.499,0.0595,0.795
468.999,0.0595,0.795
469.499,0.0595,0.795
469.999,0.0595,0.795
470.499,0.059,0.795
471,0.059,0.795
471.5,0.059,0.795
471.999,0.059,0.795
472.499,0.059,0.795
473,0.059,0.8
473.501,0.059,0.8
474.001,0.0585,0.8
474.5,0.0585,0.8
474.999,0.0585,0.8
475.5,0.0585,0.8
476,0.0585,0.8
476.5,0.0585,0.8
477.001,0.0585,0.8
477.5,0.058,0.8
478.001,0.058,0.8
478.5,0.058,0.8
478.999,0.058,0.8
479.5,0.058,0.8
479.999,0.058,0.8
480.499,0.0575,0.8
481,0.0575,0.8
481.499,0.0575,0.8
482,0.0575,0.8
482.501,0.0575,0.8
483,0.0575,0.8
483.5,0.0575,0.8
484,0.057,0.8
484.499,0.057,0.8
485,0.057,0.8
485.5,0.057,0.8
486,0.057,0.8
486.5,0.057,0.8
487,0.057,0.805
487.499,0.0565,0.8
487.999,0.0565,0.805
488.499,0.0565,0.8
489,0.0565,0.805
489.499,0.0565,0.805
489.999,0.0565,0.805
490.5,0.0565,0.805
491,0.056,0.805
491.499,0.056,0.805
491.999,0.056,0.805
492.5,0.056,0.805
492.999,0.056,0.805
493.499,0.056,0.805
493.999,0.056,0.805
494.5,0.0555,0.805
495,0.0555,0.805
495.5,0.0555,0.805
495.999,0.0555,0.81
496.5,0.0555,0.805
496.999,0.0555,0.805
497.499,0.0555,0.805
498,0.055,0.81
498.5,0.055,0.81
499,0.055,0.805
499.5,0.055,0.81
500,0.055,0.81
500.499,0.055,0.81
501,0.055,0.81
501.499,0.055,0.81
501.999,0.0545,0.81
502.5,0.0545,0.81
503,0.0545,0.81
503.5,0.0545,0.81
504,0.0545,0.81
504.499,0.0545,0.81
505,0.0545,0.81
505.5,0.054,0.81
506,0.054,0.81
506.499,0.054,0.81
507,0.054,0.81
507.5,0.054,0.81
507.999,0.054,0.81
508.5,0.054,0.81
508.999,0.0535,0.81
509.501,0.0535,0.81
509.999,0.0535,0.815
510.5,0.0535,0.81
510.999,0.0535,0.81
511.5,0.0535,0.81
511.999,0.0535,0.81
512.501,0.053,0.81
513,0.053,0.815
513.5,0.053,0.81
514,0.053,0.815
514.499,0.053,0.815
514.999,0.053,0.815
515.5,0.053,0.815
516,0.053,0.815
516.5,0.0525,0.815
517,0.0525,0.815
517.501,0.0525,0.815
518,0.0525,0.815
518.499,0.0525,0.815
518.999,0.0525,0.815
519.499,0.0525,0.815
519.999,0.052,0.815
520.499,0.052,0.815
521,0.052,0.815
521.5,0.052,0.815
521.999,0.052,0.815
522.5,0.052,0.815
523,0.052,0.815
523.5,0.052,0.815
524,0.0515,0.815
524.499,0.0515,0.815
525,0.0515,0.815
525.499,0.0515,0.815
526,0.0515,0.815
526.499,0.0515,0.815
526.999,0.0515,0.82
527.501,0.051,0.815
528,0.051,0.82
528.499,0.051,0.82
528.999,0.051,0.82
529.501,0.051,0.815
530,0.051,0.82
530.5,0.051,0.815
531,0.051,0.815
531.5,0.0505,0.82
531.999,0.0505,0.82
532.5,0.0505,0.82
532.999,0.0505,0.82
533.499,0.0505,0.82
533.999,0.0505,0.82
534.5,0.0505,0.82
535,0.0505,0.82
535.5,0.05,0.82
536,0.05,0.82
536.5,0.05,0.82
537,0.05,0.82
537.499,0.05,0.82
538,0.05,0.82
538.5,0.05,0.82
538.999,0.05,0.82
539.5,0.0495,0.82
539.999,0.0495,0.82
540.5,0.0495,0.82
541,0.0495,0.82
541.499,0.0495,0.82
542,0.0495,0.82
542.499,0.0495,0.82
543,0.049,0.82
543.5,0.049,0.82
543.999,0.049,0.82
544.499,0.049,0.82
544.999,0.049,0.82
545.499,0.049,0.82
545.999,0.049,0.82
546.501,0.049,0.82
547,0.0485,0.82
547.499,0.0485,0.82
547.999,0.0485,0.82
548.499,0.0485,0.825
549,0.0485,0.82
549.5,0.0485,0.825
550,0.0485,0.82
550.5,0.0485,0.825
550.999,0.048,0.825
551.499,0.048,0.825
552,0.048,0.825
552.5,0.048,0.825
552.999,0.048,0.825
553.5,0.048,0.825
553.999,0.048,0.825
554.5,0.048,0.825
554.999,0.0475,0.825
555.5,0.0475,0.825
555.999,0.0475,0.825
556.5,0.0475,0.825
557,0.0475,0.825
557.5,0.0475,0.825
558,0.0475,0.825
558.5,0.0475,0.825
559,0.047,0.825
559.499,0.047,0.83
560,0.047,0.825
560.499,0.047,0.825
560.999,0.047,0.83
561.5,0.047,0.83
561.999,0.047,0.83
562.5,0.047,0.83
562.999,0.0465,0.83
563.5,0.0465,0.83
563.999,0.0465,0.83
564.5,0.0465,0.83
565,0.0465,0.83
565.5,0.0465,0.83
565.999,0.0465,0.83
566.5,0.0465,0.83
566.999,0.046,0.83
567.5,0.046,0.83
567.999,0.046,0.83
568.5,0.046,0.83
569,0.046,0.83
569.499,0.046,0.83
569.999,0.046,0.83
570.5,0.046,0.83
570.999,0.046,0.83
571.499,0.0455,0.83
571.999,0.0455,0.83
572.499,0.0455,0.83
572.999,0.0455,0.83
573.5,0.0455,0.83
573.999,0.0455,0.83
574.499,0.0455,0.83
575,0.0455,0.83
575.499,0.045,0.83
575.999,0.045,0.83
576.5,0.045,0.83
577,0.045,0.83
577.499,0.045,0.83
577.999,0.045,0.83
578.499,0.045,0.83
579.001,0.045,0.83
579.499,0.045,0.83
579.999,0.0445,0.83
580.501,0.0445,0.83
580.999,0.0445,0.83
581.5,0.0445,0.83
582,0.0445,0.83
582.5,0.0445,0.83
583,0.0445,0.83
583.5,0.0445,0.83
584,0.0445,0.835
584.499,0.044,0.835
584.999,0.044,0.83
585.5,0.044,0.83
586,0.044,0.835
586.499,0.044,0.83
587,0.044,0.835
587.5,0.044,0.835
588,0.044,0.835
588.5,0.0435,0.835
589,0.0435,0.835
589.5,0.0435,0.835
590,0.0435,0.835
590.5,0.0435,0.835
590.999,0.0435,0.835
591.499,0.0435,0.835
592,0.0435,0.835
592.499,0.043,0.835
593,0.043,0.835
593.499,0.043,0.835
594,0.043,0.835
594.5,0.043,0.835
595,0.043,0.835
595.5,0.043,0.835
595.999,0.043,0.835
596.499,0.043,0.835
597,0.0425,0.84
597.5,0.0425,0.84
597.999,0.0425,0.84
598.5,0.0425,0.84
598.999,0.0425,0.84
599.499,0.0425,0.84
600,0.0425,0.84
600.5,0.0425,0.84
601,0.0425,0.84
601.5,0.042,0.84
602,0.042,0.84
602.499,0.042,0.84
602.999,0.042,0.84
603.5,0.042,0.84
603.999,0.042,0.84
604.499,0.042,0.84
604.999,0.042,0.84
605.499,0.0415,0.84
605.999,0.0415,0.84
606.5,0.0415,0.84
606.999,0.0415,0.84
607.499,0.0415,0.84
608,0.0415,0.84
608.5,0.0415,0.84
609,0.0415,0.84
609.5,0.041,0.845
610,0.041,0.84
610.499,0.041,0.845
611,0.041,0.845
611.5,0.041,0.845
612,0.041,0.845
612.499,0.041,0.845
613,0.041,0.845
613.499,0.0405,0.845
613.999,0.0405,0.845
614.5,0.0405,0.845
615,0.0405,0.845
615.5,0.0405,0.845
615.999,0.0405,0.845
616.499,0.0405,0.845
616.999,0.0405,0.845
617.5,0.04,0.845
618.001,0.04,0.845
618.499,0.04,0.845
618.999,0.04,0.845
619.5,0.04,0.845
619.999,0.04,0.845
620.499,0.04,0.845
621,0.04,0.845
621.499,0.04,0.845
621.999,0.0395,0.845
622.5,0.0395,0.845
622.999,0.0395,0.845
623.499,0.0395,0.845
624,0.0395,0.845
624.499,0.0395,0.845
624.999,0.0395,0.845
625.5,0.0395,0.845
626,0.039,0.845
626.499,0.039,0.845
627,0.039,0.845
627.499,0.039,0.845
627.999,0.039,0.845
628.5,0.039,0.845
629,0.039,0.845
629.499,0.039,0.845
630.001,0.0385,0.845
630.5,0.0385,0.845
631,0.0385,0.845
631.5,0.0385,0.845
632,0.0385,0.845
632.5,0.0385,0.845
632.999,0.0385,0.845
633.499,0.0385,0.845
634,0.0385,0.845
634.499,0.038,0.845
635.001,0.038,0.845
635.499,0.038,0.845
636,0.038,0.85
636.5,0.038,0.845
636.999,0.038,0.85
637.499,0.038,0.85
637.999,0.038,0.85
638.5,0.038,0.85
638.999,0.0375,0.85
639.5,0.0375,0.85
639.999,0.0375,0.85
640.5,0.0375,0.85
640.999,0.0375,0.85
641.499,0.0375,0.85
642,0.0375,0.85
642.5,0.0375,0.85
643,0.0375,0.85
643.499,0.037,0.85
643.999,0.037,0.85
644.5,0.037,0.85
645,0.037,0.85
645.5,0.037,0.85
645.999,0.037,0.855
646.5,0.037,0.85
647,0.037,0.855
647.5,0.037,0.855
648,0.0365,0.85
648.5,0.0365,0.85
648.999,0.0365,0.855
649.499,0.0365,0.85
649.999,0.0365,0.855
650.499,0.0365,0.855
650.999,0.0365,0.855
651.499,0.0365,0.855
651.999,0.0365,0.855
652.5,0.036,0.855
653.001,0.036,0.855
653.499,0.036,0.855
654.001,0.036,0.855
654.5,0.036,0.855
655,0.036,0.855
655.501,0.036,0.855
655.999,0.036,0.855
656.499,0.036,0.855
656.999,0.036,0.855
657.5,0.0355,0.855
657.999,0.0355,0.855
658.5,0.0355,0.855
659,0.0355,0.855
659.5,0.0355,0.855
660,0.0355,0.855
660.499,0.0355,0.855
661,0.0355,0.855
661.5,0.0355,0.855
661.999,0.035,0.855
662.5,0.035,0.855
662.999,0.035,0.855
663.5,0.035,0.855
663.999,0.035,0.855
664.5,0.035,0.855
665,0.035,0.855
665.5,0.035,0.855
666,0.035,0.855
666.501,0.035,0.855
667,0.0345,0.855
667.499,0.0345,0.855
668,0.0345,0.855
668.5,0.0345,0.855
669,0.0345,0.855
669.5,0.0345,0.855
670,0.0345,0.86
670.499,0.0345,0.855
670.999,0.0345,0.86
671.5,0.034,0.86
671.999,0.034,0.86
672.499,0.034,0.86
673,0.034,0.86
673.499,0.034,0.86
674,0.034,0.86
674.5,0.034,0.86
675,0.034,0.86
675.499,0.034,0.86
675.999,0.034,0.86
676.5,0.0335,0.86
677,0.0335,0.86
677.5,0.0335,0.86
678,0.0335,0.86
678.499,0.0335,0.86
679.001,0.0335,0.86
679.501,0.0335,0.86
680,0.0335,0.86
680.5,0.0335,0.86
680.999,0.0335,0.86
681.499,0.033,0.86
682,0.033,0.86
682.499,0.033,0.86
682.999,0.033,0.86
683.499,0.033,0.86
684,0.033,0.86
684.5,0.033,0.86
684.999,0.033,0.86
685.499,0.033,0.86
685.999,0.033,0.86
686.499,0.0325,0.86
686.999,0.0325,0.86
687.499,0.0325,0.86
687.999,0.0325,0.865
688.5,0.0325,0.86
688.999,0.0325,0.865
689.5,0.0325,0.865
690.001,0.0325,0.865
690.499,0.0325,0.865
690.999,0.0325,0.865
691.499,0.032,0.865
692,0.032,0.865
692.5,0.032,0.865
692.999,0.032,0.865
693.5,0.032,0.865
694,0.032,0.865
694.5,0.032,0.865
695,0.032,0.865
695.499,0.032,0.865
696,0.032,0.865
696.501,0.0315,0.865
696.999,0.0315,0.865
697.5,0.0315,0.865
698,0.0315,0.865
698.5,0.0315,0.865
698.999,0.0315,0.865
699.499,0.0315,0.865
700,0.0315,0.865
700.5,0.0315,0.865
701,0.0315,0.865
701.5,0.031,0.865
702,0.031,0.865
702.5,0.031,0.865
702.999,0.031,0.865
703.499,0.031,0.865
704,0.031,0.865
704.499,0.031,0.865
704.999,0.031,0.865
705.499,0.031,0.865
705.999,0.031,0.865
706.5,0.031,0.865
706.999,0.0305,0.865
707.5,0.0305,0.865
708,0.0305,0.865
708.5,0.0305,0.865
709,0.0305,0.865
709.5,0.0305,0.865
709.999,0.0305,0.865
710.5,0.0305,0.87
710.999,0.0305,0.865
711.499,0.0305,0.87
712,0.03,0.87
712.499,0.03,0.87
713.001,0.03,0.87
713.5,0.03,0.87
714,0.03,0.87
714.499,0.03,0.87
714.999,0.03,0.87
715.499,0.03,0.87
716,0.03,0.87
716.499,0.03,0.87
717,0.0295,0.87
717.499,0.0295,0.87
717.999,0.0295,0.87
718.499,0.0295,0.87
719.001,0.0295,0.865
719.499,0.0295,0.87
719.999,0.0295,0.87
720.5,0.0295,0.87
720.999,0.0295,0.87
721.5,0.0295,0.87
721.999,0.0295,0.87
722.499,0.029,0.87
723,0.029,0.87
723.5,0.029,0.87
724,0.029,0.87
724.499,0.029,0.87
725,0.029,0.87
725.499,0.029,0.87
725.999,0.029,0.87
726.5,0.029,0.87
727,0.029,0.87
727.5,0.029,0.87
728,0.0285,0.87
728.499,0.0285,0.87
729,0.0285,0.87
729.5,0.0285,0.87
730.001,0.0285,0.87
730.499,0.0285,0.87
731,0.0285,0.87
731.499,0.0285,0.87
732,0.0285,0.87
732.499,0.0285,0.87
733,0.028,0.875
733.499,0.028,0.87
733.999,0.028,0.87
734.5,0.028,0.87
734.999,0.028,0.87
735.501,0.028,0.875
736,0.028,0.875
736.499,0.028,0.875
736.999,0.028,0.875
737.499,0.028,0.87
738,0.028,0.875
738.5,0.0275,0.875
738.999,0.0275,0.875
739.5,0.0275,0.875
740,0.0275,0.875
740.5,0.0275,0.875
740.999,0.0275,0.875
741.499,0.0275,0.875
742,0.0275,0.875
742.5,0.0275,0.875
742.999,0.0275,0.875
743.499,0.0275,0.875
744,0.027,0.875
744.5,0.027,0.875
744.999,0.027,0.875
745.501,0.027,0.875
746,0.027,0.875
746.499,0.027,0.875
747.001,0.027,0.875
747.499,0.027,0.875
747.999,0.027,0.875
748.499,0.027,0.875
749,0.027,0.875
749.499,0.0265,0.875
749.999,0.0265,0.88
750.5,0.0265,0.875
751,0.0265,0.88
751.5,0.0265,0.875
752,0.0265,0.875
752.499,0.0265,0.88
752.999,0.0265,0.875
753.5,0.0265,0.88
754,0.0265,0.875
754.499,0.026,0.875
754.999,0.026,0.875
755.499,0.026,0.88
756.001,0.026,0.88
756.5,0.026,0.88
757,0.026,0.88
757.5,0.026,0.88
758,0.026,0.88
758.5,0.026,0.875
759,0.026,0.88
759.499,0.026,0.88
760,0.0255,0.88
760.499,0.0255,0.88
761,0.0255,0.88
761.499,0.0255,0.88
761.999,0.0255,0.88
762.5,0.0255,0.88
762.999,0.0255,0.88
763.5,0.0255,0.88
763.999,0.0255,0.88
764.5,0.0255,0.88
765,0.0255,0.88
765.499,0.025,0.88
766,0.025,0.88
766.5,0.025,0.88
766.999,0.025,0.88
767.499,0.025,0.88
768,0.025,0.88
768.499,0.025,0.88
769,0.025,0.88
769.5,0.025,0.88
769.999,0.025,0.88
770.5,0.025,0.88
771,0.025,0.88
771.5,0.0245,0.88
772,0.0245,0.88
772.5,0.0245,0.88
772.999,0.0245,0.88
773.5,0.0245,0.88
773.999,0.0245,0.88
774.5,0.0245,0.88
774.999,0.0245,0.88
775.5,0.0245,0.88
776,0.0245,0.88
776.499,0.0245,0.88
777,0.024,0.88
777.499,0.024,0.88
777.999,0.024,0.88
778.5,0.024,0.88
779,0.024,0.88
779.5,0.024,0.88
780,0.024,0.88
780.5,0.024,0.88
781,0.024,0.88
781.5,0.024,0.88
781.999,0.024,0.88
782.499,0.0235,0.88
783,0.0235,0.88
783.5,0.0235,0.88
783.999,0.0235,0.88
784.5,0.0235,0.88
785,0.0235,0.88
785.499,0.0235,0.88
786,0.0235,0.885
786.499,0.0235,0.885
786.999,0.0235,0.885
787.501,0.0235,0.885
788,0.0235,0.885
788.5,0.023,0.885
789,0.023,0.885
789.499,0.023,0.885
790,0.023,0.885
790.5,0.023,0.885
791,0.023,0.885
791.499,0.023,0.885
791.999,0.023,0.885
792.499,0.023,0.885
792.999,0.023,0.885
793.499,0.023,0.885
793.999,0.023,0.885
794.5,0.0225,0.885
794.999,0.0225,0.885
795.5,0.0225,0.885
795.999,0.0225,0.89
796.5,0.0225,0.89
796.999,0.0225,0.89
797.499,0.0225,0.885
798,0.0225,0.885
798.501,0.0225,0.89
798.999,0.0225,0.885
799.501,0.0225,0.89
799.999,0.0225,0.89
800.499,0.022,0.89
800.999,0.022,0.89
801.5,0.022,0.89
802,0.022,0.89
802.499,0.022,0.885
803,0.022,0.885
803.499,0.022,0.89
804,0.022,0.885
804.5,0.022,0.89
805,0.022,0.89
805.5,0.022,0.89
806,0.0215,0.89
806.499,0.0215,0.89
807,0.0215,0.89
807.5,0.0215,0.89
807.999,0.0215,0.89
808.5,0.0215,0.89
808.999,0.0215,0.89
809.499,0.0215,0.89
810,0.0215,0.89
810.5,0.0215,0.89
810.999,0.0215,0.89
811.499,0.0215,0.89
811.999,0.0215,0.885
812.5,0.021,0.89
813,0.021,0.89
813.499,0.021,0.89
813.999,0.021,0.89
814.5,0.021,0.89
814.999,0.021,0.89
815.499,0.021,0.89
816,0.021,0.89
816.499,0.021,0.89
816.999,0.021,0.89
817.499,0.021,0.89
817.999,0.021,0.89
818.5,0.0205,0.89
818.999,0.0205,0.89
819.499,0.0205,0.89
819.999,0.0205,0.89
820.499,0.0205,0.89
820.999,0.0205,0.89
821.499,0.0205,0.89
822,0.0205,0.89
822.499,0.0205,0.89
823.001,0.0205,0.89
823.5,0.0205,0.89
823.999,0.0205,0.89
824.499,0.02,0.89
824.999,0.02,0.89
825.499,0.02,0.89
826,0.02,0.89
826.5,0.02,0.89
827,0.02,0.89
827.499,0.02,0.89
828,0.02,0.89
828.499,0.02,0.89
829,0.02,0.89
829.5,0.02,0.89
829.999,0.02,0.89
830.499,0.02,0.89
831,0.0195,0.89
831.5,0.0195,0.89
831.999,0.0195,0.895
832.499,0.0195,0.89
832.999,0.0195,0.895
833.5,0.0195,0.895
833.999,0.0195,0.89
834.5,0.0195,0.895
834.999,0.0195,0.895
835.499,0.0195,0.895
836,0.0195,0.895
836.499,0.0195,0.895
837,0.0195,0.895
837.499,0.019,0.895
837.999,0.019,0.895
838.499,0.019,0.895
838.999,0.019,0.895
839.499,0.019,0.895
840,0.019,0.895
840.499,0.019,0.895
841,0.019,0.895
841.5,0.019,0.895
841.999,0.019,0.895
842.499,0.019,0.895
843,0.019,0.895
843.5,0.019,0.895
843.999,0.0185,0.895
844.5,0.0185,0.895
845,0.0185,0.895
845.499,0.0185,0.895
845.999,0.0185,0.895
846.5,0.0185,0.895
846.999,0.0185,0.9
847.499,0.0185,0.895
848,0.0185,0.895
848.5,0.0185,0.895
848.999,0.0185,0.895
849.499,0.0185,0.895
849.999,0.0185,0.9
850.499,0.018,0.895
850.999,0.018,0.9
851.499,0.018,0.9
851.999,0.018,0.895
852.5,0.018,0.895
852.999,0.018,0.895
853.5,0.018,0.9
853.999,0.018,0.895
854.499,0.018,0.9
855,0.018,0.895
855.499,0.018,0.895
856,0.018,0.9
856.5,0.018,0.9
857,0.0175,0.895
857.499,0.0175,0.9
858,0.0175,0.895
858.5,0.0175,0.9
859,0.0175,0.895
859.499,0.0175,0.895
860,0.0175,0.895
860.5,0.0175,0.895
861,0.0175,0.895
861.499,0.0175,0.895
861.999,0.0175,0.895
862.499,0.0175,0.895
863,0.0175,0.895
863.5,0.0175,0.895
863.999,0.017,0.9
864.499,0.017,0.9
864.999,0.017,0.895
865.5,0.017,0.9
865.999,0.017,0.9
866.499,0.017,0.9
866.999,0.017,0.9
867.499,0.017,0.9
867.999,0.017,0.9
868.5,0.017,0.9
869,0.017,0.9
869.5,0.017,0.9
870,0.017,0.9
870.499,0.0165,0.9
870.999,0.0165,0.9
871.499,0.0165,0.9
872,0.0165,0.9
872.5,0.0165,0.9
872.999,0.0165,0.9
873.5,0.0165,0.9
874,0.0165,0.9
874.501,0.0165,0.9
875,0.0165,0.9
875.501,0.0165,0.9
876.001,0.0165,0.9
876.5,0.0165,0.9
876.999,0.0165,0.9
877.5,0.016,0.9
878,0.016,0.905
878.5,0.016,0.905
878.999,0.016,0.9
879.5,0.016,0.905
880,0.016,0.9
880.499,0.016,0.905
880.999,0.016,0.905
881.5,0.016,0.905
882,0.016,0.9
882.499,0.016,0.905
883,0.016,0.905
883.5,0.016,0.905
884,0.016,0.905
884.499,0.016,0.905
884.999,0.0155,0.905
885.499,0.0155,0.905
885.999,0.0155,0.905
886.499,0.0155,0.905
887.001,0.0155,0.905
887.501,0.0155,0.905
887.999,0.0155,0.905
888.5,0.0155,0.905
889,0.0155,0.905
889.5,0.0155,0.905
890.001,0.0155,0.905
890.499,0.0155,0.905
891.001,0.0155,0.905
891.5,0.0155,0.905
892,0.015,0.905
892.501,0.015,0.905
893,0.015,0.905
893.499,0.015,0.905
894,0.015,0.905
894.5,0.015,0.905
895,0.015,0.905
895.5,0.015,0.905
895.999,0.015,0.905
896.5,0.015,0.905
897,0.015,0.905
897.499,0.015,0.905
898,0.015,0.905
898.499,0.015,0.905
899,0.0145,0.905
899.499,0.0145,0.905
900,0.0145,0.905
900.5,0.0145,0.905
901.001,0.0145,0.905
901.5,0.0145,0.905
902,0.0145,0.905
902.499,0.0145,0.905
903,0.0145,0.905
903.5,0.0145,0.905
903.999,0.0145,0.905
904.5,0.0145,0.905
904.999,0.0145,0.905
905.5,0.0145,0.905
906,0.0145,0.905
906.5,0.014,0.905
907,0.014,0.905
907.499,0.014,0.905
908,0.014,0.905
908.499,0.014,0.905
909,0.014,0.905
909.499,0.014,0.905
909.999,0.014,0.905
910.5,0.014,0.905
910.999,0.014,0.905
911.499,0.014,0.905
912,0.014,0.905
912.5,0.014,0.905
913,0.014,0.905
913.5,0.014,0.91
914,0.0135,0.91
914.499,0.0135,0.91
915,0.0135,0.91
915.5,0.0135,0.91
915.999,0.0135,0.91
916.499,0.0135,0.91
916.999,0.0135,0.91
917.5,0.0135,0.91
917.999,0.0135,0.91
918.5,0.0135,0.91
919,0.0135,0.91
919.499,0.0135,0.91
920,0.0135,0.91
920.499,0.0135,0.91
920.999,0.0135,0.91
921.499,0.013,0.91
921.999,0.013,0.91
922.5,0.013,0.91
922.999,0.013,0.91
923.5,0.013,0.91
924,0.013,0.91
924.5,0.013,0.91
924.999,0.013,0.91
925.499,0.013,0.91
925.999,0.013,0.91
926.501,0.013,0.91
927,0.013,0.91
927.499,0.013,0.91
928,0.013,0.91
928.5,0.013,0.91
929.001,0.013,0.91
929.501,0.0125,0.91
930,0.0125,0.91
930.499,0.0125,0.91
930.999,0.0125,0.91
931.5,0.0125,0.91
932,0.0125,0.91
932.5,0.0125,0.91
932.999,0.0125,0.91
933.5,0.0125,0.91
933.999,0.0125,0.91
934.499,0.0125,0.91
935,0.0125,0.91
935.499,0.0125,0.91
936,0.0125,0.91
936.499,0.0125,0.91
936.999,0.0125,0.91
937.499,0.012,0.91
937.999,0.012,0.91
938.5,0.012,0.91
939,0.012,0.91
939.499,0.012,0.91
939.999,0.012,0.91
940.5,0.012,0.91
940.999,0.012,0.91
941.499,0.012,0.91
942,0.012,0.91
942.499,0.012,0.91
942.999,0.012,0.91
943.499,0.012,0.91
943.999,0.012,0.91
944.5,0.012,0.91
944.999,0.012,0.91
945.5,0.0115,0.91
946.001,0.0115,0.91
946.5,0.0115,0.915
947.001,0.0115,0.91
947.5,0.0115,0.915
948,0.0115,0.91
948.499,0.0115,0.915
948.999,0.0115,0.915
949.5,0.0115,0.915
950,0.0115,0.915
950.5,0.0115,0.915
951,0.0115,0.915
951.499,0.0115,0.915
952,0.0115,0.915
952.499,0.0115,0.915
952.999,0.0115,0.915
953.5,0.011,0.915
953.999,0.011,0.915
954.499,0.011,0.915
955,0.011,0.915
955.5,0.011,0.915
956,0.011,0.915
956.5,0.011,0.915
956.999,0.011,0.915
957.5,0.011,0.915
958,0.011,0.915
958.499,0.011,0.915
959,0.011,0.915
959.499,0.011,0.915
959.999,0.011,0.915
960.499,0.011,0.915
961.001,0.011,0.915
961.5,0.011,0.915
961.999,0.0105,0.915
962.499,0.0105,0.915
962.999,0.0105,0.915
963.5,0.0105,0.915
964,0.0105,0.915
964.5,0.0105,0.915
965,0.0105,0.915
965.499,0.0105,0.915
966,0.0105,0.915
966.5,0.0105,0.915
966.999,0.0105,0.915
967.5,0.0105,0.915
967.999,0.0105,0.915
968.499,0.0105,0.915
969,0.0105,0.915
969.499,0.0105,0.915
969.999,0.0105,0.915
970.499,0.01,0.915
971,0.01,0.915
971.499,0.01,0.915
972,0.01,0.915
972.499,0.01,0.915
973,0.01,0.915
973.501,0.01,0.915
973.999,0.01,0.915
974.5,0.01,0.915
974.999,0.01,0.915
975.5,0.01,0.915
976,0.01,0.915
976.499,0.01,0.915
977,0.01,0.915
977.5,0.01,0.92
978,0.01,0.915
978.501,0.01,0.915
979.001,0.01,0.92
979.5,0.0095,0.915
980,0.0095,0.92
980.5,0.0095,0.92
980.999,0.0095,0.92
981.5,0.0095,0.92
982,0.0095,0.92
982.5,0.0095,0.92
982.999,0.0095,0.92
983.499,0.0095,0.92
983.999,0.0095,0.92
984.499,0.0095,0.92
985,0.0095,0.92
985.5,0.0095,0.92
985.999,0.0095,0.92
986.499,0.0095,0.92
987,0.0095,0.92
987.501,0.0095,0.92
988,0.009,0.92
988.5,0.009,0.92
989,0.009,0.92
989.499,0.009,0.92
990.001,0.009,0.92
990.499,0.009,0.92
990.999,0.009,0.92
991.5,0.009,0.92
991.999,0.009,0.92
992.499,0.009,0.92
993,0.009,0.92
993.501,0.009,0.92
994,0.009,0.92
994.499,0.009,0.92
994.999,0.009,0.92
995.499,0.009,0.92
996,0.009,0.92
996.5,0.009,0.92
996.999,0.009,0.92
997.5,0.0085,0.92
998,0.0085,0.92
998.499,0.0085,0.92
999,0.0085,0.92
999.501,0.0085,0.92
1000,0.0085,0.92
1000.499,0.0085,0.92
1001.001,0.0085,0.92
1001.5,0.0085,0.92
1002,0.0085,0.92
1002.501,0.0085,0.92
1003,0.0085,0.92
1003.499,0.0085,0.92
1004.001,0.0085,0.92
1004.5,0.0085,0.92
1005.001,0.0085,0.92
1005.5,0.0085,0.92
1006,0.0085,0.92
1006.5,0.008,0.92
1007,0.008,0.92
1007.501,0.008,0.92
1007.999,0.008,0.92
1008.5,0.008,0.92
1008.999,0.008,0.92
1009.5,0.008,0.92
1009.999,0.008,0.92
1010.499,0.008,0.92
1010.999,0.008,0.925
1011.501,0.008,0.92
1012.001,0.008,0.92
1012.499,0.008,0.92
1013,0.008,0.92
1013.499,0.008,0.92
1014.001,0.008,0.92
1014.5,0.008,0.92
1015,0.008,0.92
1015.499,0.008,0.925
1015.999,0.0075,0.92
1016.501,0.0075,0.925
1017,0.0075,0.92
1017.5,0.0075,0.92
1018,0.0075,0.925
1018.501,0.0075,0.925
1019,0.0075,0.925
1019.501,0.0075,0.92
1020,0.0075,0.925
1020.501,0.0075,0.925
1021,0.0075,0.925
1021.499,0.0075,0.925
1021.999,0.0075,0.925
1022.501,0.0075,0.925
1023,0.0075,0.925
1023.501,0.0075,0.925
1024.001,0.0075,0.925
1024.501,0.0075,0.925
1025,0.0075,0.925
1025.501,0.007,0.925
1026.001,0.007,0.925
1026.501,0.007,0.925
1027,0.007,0.925
1027.501,0.007,0.925
1028.001,0.007,0.925
1028.5,0.007,0.925
1029,0.007,0.925
1029.5,0.007,0.925
1030.001,0.007,0.925
1030.501,0.007,0.925
1031,0.007,0.925
1031.5,0.007,0.925
1032,0.007,0.925
1032.501,0.007,0.925
1033.001,0.007,0.925
1033.5,0.007,0.925
1034.001,0.007,0.925
1034.499,0.007,0.925
1035.001,0.007,0.925
1035.499,0.0065,0.925
1036.001,0.0065,0.925
1036.5,0.0065,0.925
1037,0.0065,0.925
1037.5,0.0065,0.925
1038.001,0.0065,0.925
1038.501,0.0065,0.925
1038.999,0.0065,0.925
1039.5,0.0065,0.925
1040.001,0.0065,0.925
1040.501,0.0065,0.925
1041,0.0065,0.925
1041.501,0.0065,0.925
1042.001,0.0065,0.925
1042.501,0.0065,0.925
1043.001,0.0065,0.925
1043.5,0.0065,0.925
1044.001,0.0065,0.925
1044.501,0.0065,0.925
1045,0.0065,0.925
1045.501,0.006,0.925
1046.001,0.006,0.925
1046.5,0.006,0.925
1047,0.006,0.925
1047.501,0.006,0.925
1048,0.006,0.925
1048.499,0.006,0.925
1049.001,0.006,0.925
1049.501,0.006,0.925
1050,0.006,0.925
1050.5,0.006,0.925
1051,0.006,0.925
1051.5,0.006,0.925
1052,0.006,0.925
1052.501,0.006,0.925
1053,0.006,0.925
1053.501,0.006,0.925
1054.001,0.006,0.925
1054.501,0.006,0.925
1055.001,0.006,0.925
1055.5,0.006,0.925
1056.001,0.0055,0.925
1056.5,0.0055,0.925
1057,0.0055,0.925
1057.5,0.0055,0.925
1057.999,0.0055,0.925
1058.5,0.0055,0.925
1058.999,0.0055,0.93
1059.5,0.0055,0.925
1059.999,0.0055,0.925
1060.499,0.0055,0.925
1061,0.0055,0.93
1061.5,0.0055,0.925
1062,0.0055,0.925
1062.5,0.0055,0.93
1062.999,0.0055,0.93
1063.499,0.0055,0.93
1064.001,0.0055,0.93
1064.5,0.0055,0.93
1065,0.0055,0.93
1065.499,0.0055,0.925
1066.001,0.005,0.93
1066.501,0.005,0.93
1067,0.005,0.93
1067.501,0.005,0.93
1068,0.005,0.93
1068.5,0.005,0.93
1069,0.005,0.93
1069.501,0.005,0.93
1070,0.005,0.93
1070.499,0.005,0.93
1071,0.005,0.93
1071.5,0.005,0.93
1072.001,0.005,0.93
1072.499,0.005,0.93
1073,0.005,0.93
1073.5,0.005,0.93
1074,0.005,0.93
1074.5,0.005,0.93
1075,0.005,0.93
1075.501,0.005,0.93
1076.001,0.005,0.93
1076.499,0.005,0.93
1077,0.005,0.93
1077.501,0.0045,0.93
1078,0.0045,0.93
1078.5,0.0045,0.93
1079,0.0045,0.93
1079.501,0.0045,0.93
1080.001,0.0045,0.93
1080.501,0.0045,0.93
1081,0.0045,0.93
1081.5,0.0045,0.93
1082.001,0.0045,0.93
1082.5,0.0045,0.93
1083,0.0045,0.93
1083.5,0.0045,0.93
1084,0.0045,0.93
1084.501,0.0045,0.93
1085,0.0045,0.93
1085.769,0.0045,0.93
1086.001,0.0045,0.93
1086.502,0.0045,0.93
1087.001,0.0045,0.93
1087.5,0.0045,0.93
1088,0.0045,0.93
1088.5,0.0045,0.93
1089,0.0045,0.93
1089.5,0.004,0.93
1090,0.004,0.93
1090.501,0.004,0.93
1091,0.004,0.93
1091.5,0.004,0.93
1092,0.004,0.93
1092.5,0.004,0.93
1093.001,0.004,0.93
1093.5,0.004,0.93
1094.001,0.004,0.93
1094.5,0.004,0.93
1095,0.004,0.93
1095.501,0.004,0.93
1096,0.004,0.93
1096.501,0.004,0.93
1097.001,0.004,0.93
1097.5,0.004,0.93
1098,0.004,0.93
1098.501,0.004,0.93
1099.001,0.004,0.93
1099.5,0.004,0.93
1100,0.004,0.93
1100.501,0.004,0.93
1100.999,0.004,0.93
1101.5,0.004,0.93
1102,0.004,0.93
1102.499,0.004,0.93
1103.001,0.0035,0.93
1103.5,0.0035,0.93
1104.001,0.0035,0.93
1104.577,0.0035,0.93
1105.001,0.0035,0.93
1105.501,0.0035,0.93
1106.001,0.0035,0.93
1106.501,0.0035,0.93
1107.001,0.0035,0.93
1107.5,0.0035,0.93
1108.001,0.0035,0.93
1108.5,0.0035,0.93
1109,0.0035,0.93
1109.501,0.0035,0.93
1110.001,0.0035,0.935
1110.501,0.0035,0.935
1111,0.0035,0.935
1111.5,0.0035,0.93
1112,0.0035,0.935
1112.5,0.0035,0.93
1113.001,0.0035,0.935
1113.501,0.0035,0.935
1114,0.0035,0.935
1114.501,0.0035,0.935
1115,0.0035,0.935
1115.501,0.0035,0.93
1116.001,0.0035,0.93
1116.5,0.0035,0.935
1117.001,0.0035,0.935
1117.5,0.0035,0.93
1118.001,0.0035,0.935
1118.5,0.0035,0.93
1119,0.0035,0.935
1119.501,0.0035,0.935
1120.001,0.003,0.93
1120.501,0.003,0.93
1121,0.003,0.935
1121.504,0.003,0.935
1122,0.003,0.93
1122.5,0.003,0.93
1123,0.003,0.93
1123.501,0.003,0.93
1124,0.003,0.93
1124.501,0.003,0.93
1125,0.003,0.93
1125.5,0.003,0.93
1126,0.003,0.93
1126.501,0.003,0.93
1127.001,0.003,0.935
1127.5,0.003,0.93
1128,0.003,0.93
1128.501,0.003,0.93
1129,0.003,0.93
1129.5,0.003,0.93
1130,0.003,0.93
1130.5,0.003,0.93
1131.001,0.003,0.93
1131.5,0.003,0.93
1132,0.003,0.93
1132.5,0.003,0.93
1133,0.003,0.93
1133.5,0.003,0.93
1134,0.003,0.93
1134.501,0.003,0.93
1135,0.003,0.935
1135.5,0.003,0.935
1136.001,0.003,0.93
1136.5,0.003,0.93
1137,0.003,0.935
1137.501,0.003,0.93
1138,0.003,0.93
1138.5,0.003,0.935
1139,0.003,0.93
1139.501,0.0025,0.935
1140.001,0.0025,0.935
1140.501,0.0025,0.935
1141.001,0.0025,0.935
1141.501,0.0025,0.935
1142,0.0025,0.935
1142.5,0.0025,0.935
1143.001,0.0025,0.935
1143.501,0.0025,0.935
1144,0.0025,0.935
1144.5,0.0025,0.935
1145,0.0025,0.935
1145.5,0.0025,0.935
1146,0.0025,0.935
1146.5,0.0025,0.935
1147.001,0.0025,0.935
1147.501,0.0025,0.935
1148,0.0025,0.935
1148.501,0.0025,0.935
1149,0.0025,0.935
1149.501,0.0025,0.935
1150,0.0025,0.935
1150.499,0.0025,0.935
1151,0.0025,0.935
1151.501,0.0025,0.935
1152.001,0.0025,0.935
1152.5,0.0025,0.935
1153,0.0025,0.935
1153.501,0.0025,0.935
1153.999,0.0025,0.935
1154.5,0.0025,0.935
1155.001,0.0025,0.935
1155.5,0.0025,0.935
1156,0.0025,0.935
1156.5,0.0025,0.935
1157,0.0025,0.935
1157.501,0.0025,0.935
1158,0.0025,0.935
1158.501,0.0025,0.935
1159,0.0025,0.935
1159.5,0.0025,0.935
1160.001,0.0025,0.935
1160.5,0.0025,0.935
1161.001,0.0025,0.935
1161.5,0.0025,0.935
1162,0.0025,0.935
1162.501,0.0025,0.935
1163,0.0025,0.935
1163.5,0.0025,0.935
1164.001,0.0025,0.935
1164.5,0.0025,0.935
1165.001,0.002,0.935
1165.501,0.002,0.935
1166,0.002,0.935
1166.5,0.002,0.935
1167.001,0.002,0.935
1167.501,0.002,0.935
1168,0.002,0.935
1168.5,0.002,0.935
1169.001,0.002,0.935
1169.5,0.002,0.935
1170.001,0.002,0.935
1170.501,0.002,0.935
1171.001,0.002,0.935
1171.5,0.002,0.935
1172,0.002,0.935
1172.5,0.002,0.935
1173.001,0.002,0.935
1173.501,0.002,0.935
1174,0.002,0.935
1174.5,0.002,0.935
1175,0.002,0.935
1175.5,0.002,0.935
1176,0.002,0.935
1176.5,0.002,0.935
1177,0.002,0.935
1177.5,0.002,0.935
1178,0.002,0.935
1178.501,0.002,0.935
1179,0.002,0.935
1179.5,0.002,0.935
1180,0.002,0.93
1180.501,0.002,0.935
1181,0.002,0.935
1181.5,0.002,0.935
1182,0.002,0.935
1182.5,0.002,0.935
1183.001,0.002,0.935
1183.5,0.002,0.935
1183.999,0.002,0.935
1184.5,0.002,0.935
1185,0.002,0.935
1185.501,0.002,0.935
1186.001,0.002,0.935
1186.5,0.002,0.935
1187,0.002,0.935
1187.501,0.002,0.935
1187.999,0.002,0.935
1188.5,0.002,0.935
1189,0.002,0.935
1189.499,0.002,0.935
1190.001,0.002,0.935
1190.502,0.002,0.935
1191,0.002,0.935
1191.5,0.002,0.935
1192.001,0.002,0.935
1192.5,0.002,0.935
1193,0.002,0.935
1193.501,0.002,0.935
1194.001,0.002,0.935
1194.5,0.002,0.935
1195,0.002,0.935
1195.501,0.002,0.935
1196.001,0.002,0.935
1196.5,0.002,0.935
1197,0.0015,0.935
1197.5,0.0015,0.935
1198.001,0.0015,0.935
1198.5,0.0015,0.935
1199.001,0.0015,0.935
1199.5,0.0015,0.935
1200.001,0.0015,0.935
1200.5,0.0015,0.935
1201,0.0015,0.935
1201.501,0.0015,0.935
1202,0.0015,0.935
1202.501,0.0015,0.935
1203.001,0.0015,0.935
1203.5,0.0015,0.935
1204.001,0.0015,0.935
1204.5,0.0015,0.935
1205.001,0.0015,0.935
1205.5,0.0015,0.935
1206,0.0015,0.935
1206.499,0.0015,0.935
1207,0.0015,0.94
1207.5,0.0015,0.94
1208.001,0.0015,0.94
1208.5,0.0015,0.94
1209.001,0.0015,0.935
1209.5,0.0015,0.935
1210,0.0015,0.94
1210.5,0.0015,0.94
1211,0.0015,0.94
1211.501,0.0015,0.935
1212,0.0015,0.94
1212.5,0.0015,0.935
1213,0.0015,0.94
1213.5,0.0015,0.94
1214,0.0015,0.94
1214.5,0.0015,0.94
1214.999,0.0015,0.94
1215.5,0.0015,0.94
1216,0.0015,0.935
1216.501,0.0015,0.94
1217.001,0.0015,0.94
1217.5,0.0015,0.94
1218.001,0.0015,0.935
1218.5,0.0015,0.94
1219.001,0.0015,0.94
1219.501,0.0015,0.94
1220.001,0.0015,0.94
1220.5,0.0015,0.94
1221.001,0.0015,0.94
1221.5,0.0015,0.94
1222,0.0015,0.94
1222.5,0.0015,0.935
1223.001,0.0015,0.94
1223.5,0.0015,0.94
1224,0.0015,0.94
1224.5,0.0015,0.94
1225,0.0015,0.94
1225.501,0.0015,0.94
1226.001,0.0015,0.94
1226.499,0.0015,0.935
1227,0.0015,0.94
1227.5,0.0015,0.94
1228,0.0015,0.94
1228.5,0.0015,0.94
1229,0.0015,0.94
1229.5,0.0015,0.94
1230,0.0015,0.94
1230.501,0.0015,0.94
1231,0.0015,0.94
1231.501,0.0015,0.94
1232,0.0015,0.935
1232.501,0.0015,0.94
1233,0.0015,0.94
1233.5,0.0015,0.94
1234,0.0015,0.94
1234.501,0.0015,0.935
1235.001,0.0015,0.935
1235.501,0.0015,0.935
1236.001,0.0015,0.935
1236.501,0.0015,0.94
1237,0.0015,0.94
1237.501,0.0015,0.935
1238,0.0015,0.94
1238.501,0.0015,0.935
1239.001,0.0015,0.935
1239.499,0.001,0.935
1240,0.001,0.935
1240.501,0.001,0.935
1241,0.001,0.935
1241.501,0.001,0.935
1242,0.001,0.935
1242.5,0.001,0.935
1243.001,0.001,0.935
1243.5,0.001,0.935
1244,0.001,0.935
1244.501,0.001,0.935
1245,0.001,0.935
1245.501,0.001,0.935
1246,0.001,0.935
1246.5,0.001,0.935
1247,0.001,0.935
1247.5,0.001,0.935
1248,0.001,0.935
1248.5,0.001,0.935
1249.001,0.001,0.935
1249.501,0.001,0.935
1250.001,0.001,0.935
1250.5,0.001,0.935
1251,0.001,0.935
1251.501,0.001,0.935
1252.001,0.001,0.935
1252.501,0.001,0.935
1253,0.001,0.935
1253.501,0.001,0.935
1254.001,0.001,0.94
1254.5,0.001,0.935
1255,0.001,0.935
1255.5,0.001,0.94
1256.001,0.001,0.935
1256.5,0.001,0.935
1257.001,0.001,0.935
1257.501,0.001,0.94
1258.001,0.001,0.94
1258.5,0.001,0.94
1259,0.001,0.94
1259.501,0.001,0.94
1260,0.001,0.94
1260.501,0.001,0.94
1261,0.001,0.94
1261.501,0.001,0.94
1262.001,0.001,0.94
1262.5,0.001,0.94
1263,0.001,0.94
1263.5,0.001,0.94
1264,0.001,0.94
1264.5,0.001,0.94
1265,0.001,0.94
1265.501,0.001,0.94
1266,0.001,0.94
1266.501,0.001,0.94
1267,0.001,0.94
1267.5,0.001,0.94
1268.001,0.001,0.94
1268.5,0.001,0.94
1269,0.001,0.94
1269.5,0.001,0.94
1270,0.001,0.94
1270.5,0.001,0.94
1271,0.001,0.94
1271.5,0.001,0.94
1272.001,0.001,0.94
1272.5,0.001,0.94
1273.001,0.001,0.94
1273.501,0.001,0.94
1274,0.001,0.94
1274.5,0.001,0.94
1275.001,0.001,0.94
1275.5,0.001,0.94
1276.001,0.001,0.94
1276.501,0.001,0.94
1277,0.001,0.94
1277.501,0.001,0.94
1278,0.001,0.94
1278.5,0.001,0.94
1279.001,0.001,0.94
1279.501,0.001,0.94
1280.001,0.001,0.94
1280.5,0.001,0.94
1281,0.001,0.94
1281.501,0.001,0.94
1282,0.001,0.94
1282.5,0.001,0.94
1283,0.001,0.94
1283.5,0.001,0.94
1284,0.001,0.94
1284.5,0.001,0.94
1285.001,0.001,0.935
1285.5,0.001,0.94
1286,0.001,0.94
1286.5,0.001,0.94
1287,0.001,0.94
1287.5,0.001,0.94
1288,0.001,0.94
1288.501,0.001,0.935
1289.001,0.001,0.94
1289.501,0.001,0.94
1290.001,0.001,0.935
1290.501,0.001,0.935
1291.001,0.001,0.935
1291.5,0.001,0.935
1291.999,0.001,0.935
1292.501,0.001,0.935
1293,0.001,0.935
1293.5,0.001,0.935
1294.001,0.001,0.935
1294.5,0.001,0.94
1295.001,0.001,0.935
1295.5,0.001,0.935
1296.001,0.001,0.935
1296.5,0.001,0.935
1297,0.001,0.94
1297.5,0.001,0.94
1298,0.001,0.935
1298.5,0.001,0.935
1299.001,0.001,0.94
1299.5,0.001,0.935
1300.001,0.001,0.94
1300.501,0.001,0.94
1301,0.001,0.94
1301.501,0.001,0.94
1302,0.001,0.94
1302.501,0.001,0.94
1303.001,0.001,0.94
1303.5,0.001,0.94
1304.001,0.001,0.94
1304.5,0.001,0.94
1305.001,0.001,0.94
1305.5,0.001,0.94
1306,0.001,0.94
1306.501,0.001,0.94
1307.001,0.001,0.94
1307.5,0.001,0.94
1308,0.001,0.94
1308.5,0.001,0.94
1309.001,0.001,0.94
1309.501,0.001,0.94
1310,0.001,0.94
1310.501,0.001,0.94
1311.001,0.001,0.94
1311.5,0.001,0.94
1312,0.001,0.94
1312.5,0.001,0.94
1313,0.001,0.94
1313.5,0.001,0.94
1314,0.001,0.94
1314.5,0.001,0.94
1315,0.001,0.94
1315.501,0.001,0.94
1316.001,0.001,0.94
1316.501,0.001,0.94
1317,0.001,0.94
1317.501,0.001,0.94
1318,0.001,0.94
1318.5,0.001,0.94
1319,0.001,0.94
1319.501,0.001,0.94
1320.001,0.001,0.94
1320.5,0.001,0.94
1321.001,0.001,0.94
1321.501,0.001,0.94
1322,0.001,0.94
1322.501,0.001,0.94
1323,0.001,0.94
1323.5,0.001,0.94
1324,0.001,0.94
1324.501,0.001,0.94
1325.001,0.001,0.94
1325.5,0.001,0.94
1326,0.001,0.94
1326.501,0.001,0.94
1327.001,0.001,0.94
1327.5,0.0005,0.94
1328.001,0.0005,0.94
1328.5,0.0005,0.94
1329,0.0005,0.94
1329.501,0.0005,0.94
1330.001,0.0005,0.94
1330.5,0.0005,0.94
1331.001,0.0005,0.94
1331.501,0.0005,0.94
1332,0.0005,0.94
1332.5,0.0005,0.94
1333.001,0.0005,0.94
1333.501,0.0005,0.94
1334,0.0005,0.94
1334.5,0.0005,0.94
1335,0.0005,0.94
1335.501,0.0005,0.94
1336,0.0005,0.94
1336.5,0.0005,0.94
1337,0.0005,0.94
1337.501,0.0005,0.94
1338,0.0005,0.94
1338.501,0.0005,0.94
1339.001,0.0005,0.94
1339.501,0.0005,0.94
1340.095,0.0005,0.94
1340.501,0.0005,0.94
1341,0.0005,0.94
1341.5,0,0.94
1342.001,0,0.94
1342.5,0,0.94
1343.001,0,0.94
1343.501,0,0.94
1344,0,0.94
1344.501,0,0.94
1345.001,0,0.94
1345.501,0,0.94
1346,0,0.94
1346.501,0,0.94
1347.001,0,0.94
1347.5,0,0.94
1347.999,0,0.94
1348.5,0,0.94
1349,0,0.94
1349.502,0,0.94
1350,0,0.94
1350.5,0,0.94
1351,0,0.94
1351.5,0,0.94
1352,0,0.945
1352.501,0,0.94
1353,0,0.94
1353.501,0,0.945
1354,0,0.94
1354.501,0,0.94
1355,0,0.94
1355.5,0,0.94
1356,0,0.94
1356.501,0,0.94
1357.001,0,0.94
1357.499,0,0.94
1358,0,0.945
1358.501,0,0.94
1359.001,0,0.945
1359.501,0,0.945
1360,0,0.94
1360.5,0,0.94
1361,0,0.945
1361.5,0,0.945
1362.001,0,0.94
1362.5,0,0.94
1363,0,0.94
1363.501,0,0.94
1364.001,0,0.94
1364.5,0,0.94
1365,0,0.94
1365.5,0,0.94
1366,0,0.94
1366.5,0,0.94
1367,-0.0005,0.94
1367.5,-0.0005,0.94
1368,-0.0005,0.94
1368.5,-0.0005,0.94
1369.001,-0.0005,0.94
1369.5,-0.0005,0.94
1370,-0.0005,0.94
1370.5,-0.0005,0.94
1371,-0.0005,0.94
1371.501,-0.0005,0.94
1372.001,-0.0005,0.94
1372.5,-0.0005,0.94
1373,-0.0005,0.94
1373.5,-0.0005,0.94
1374,-0.0005,0.94
1374.5,-0.0005,0.94
1375,-0.0005,0.94
1375.501,-0.0005,0.945
1376.001,-0.0005,0.94
1376.5,-0.0005,0.94
1377,-0.0005,0.94
1377.5,-0.0005,0.94
1378,-0.0005,0.945
1378.501,-0.0005,0.945
1379,-0.0005,0.945
1379.501,-0.0005,0.945
1380.001,-0.0005,0.945
1380.5,-0.0005,0.945
1381.001,-0.0005,0.945
1381.501,-0.0005,0.945
1382,-0.0005,0.945
1382.5,-0.0005,0.945
1382.999,-0.0005,0.945
1383.5,-0.001,0.945
1384,-0.001,0.945
1384.5,-0.001,0.945
1385,-0.001,0.945
1385.5,-0.001,0.945
1386.001,-0.001,0.945
1386.501,-0.001,0.945
1387.001,-0.001,0.94
1387.5,-0.001,0.945
1388,-0.001,0.945
1388.5,-0.001,0.945
1389,-0.001,0.945
1389.5,-0.001,0.945
1390.001,-0.001,0.945
1390.501,-0.001,0.94
1391.001,-0.001,0.94
1391.5,-0.001,0.945
1392,-0.001,0.945
1392.5,-0.001,0.945
1393.001,-0.001,0.94
1393.499,-0.001,0.945
1394.001,-0.001,0.94
1394.5,-0.001,0.94
1395,-0.001,0.94
1395.501,-0.001,0.94
1396.001,-0.001,0.94
1396.5,-0.001,0.94
1397,-0.001,0.94
1397.501,-0.001,0.94
1398,-0.001,0.94
1398.5,-0.001,0.94
1399,-0.001,0.945
1399.5,-0.001,0.94
1400,-0.001,0.94
1400.501,-0.001,0.945
1401.001,-0.0015,0.945
1401.5,-0.0015,0.945
1402.001,-0.0015,0.945
1402.5,-0.0015,0.945
1403.001,-0.0015,0.945
1403.5,-0.0015,0.945
1404,-0.0015,0.945
1404.5,-0.0015,0.945
1405,-0.0015,0.945
1405.5,-0.0015,0.945
1406,-0.0015,0.945
1406.5,-0.0015,0.945
1407,-0.0015,0.945
1407.501,-0.0015,0.945
1408,-0.0015,0.945
1408.501,-0.0015,0.945
1409,-0.0015,0.945
1409.501,-0.0015,0.945
1410,-0.0015,0.945
1410.5,-0.0015,0.945
1411.001,-0.0015,0.945
1411.5,-0.0015,0.945
1412,-0.0015,0.945
1412.5,-0.0015,0.945
1413,-0.0015,0.945
1413.5,-0.0015,0.945
1414.001,-0.0015,0.945
1414.5,-0.0015,0.945
1415,-0.0015,0.945
1415.501,-0.0015,0.945
1416.001,-0.0015,0.945
1416.5,-0.0015,0.945
1417.001,-0.0015,0.945
1417.501,-0.0015,0.945
1418,-0.0015,0.945
1418.5,-0.0015,0.945
1419,-0.0015,0.945
1419.5,-0.0015,0.945
1420.001,-0.002,0.945
1420.5,-0.002,0.945
1421,-0.002,0.945
1421.501,-0.002,0.945
1422,-0.002,0.945
1422.5,-0.002,0.945
1423,-0.002,0.945
1423.501,-0.002,0.945
1424.001,-0.002,0.945
1424.501,-0.002,0.945
1425.001,-0.002,0.945
1425.501,-0.002,0.945
1426,-0.002,0.945
1426.501,-0.002,0.945
1427,-0.002,0.945
1427.501,-0.002,0.945
1428,-0.002,0.945
1428.5,-0.002,0.945
1429,-0.002,0.945
1429.5,-0.002,0.945
1430,-0.002,0.945
1430.501,-0.002,0.945
1431,-0.002,0.945
1431.5,-0.002,0.945
1432,-0.002,0.945
1432.501,-0.002,0.945
1433,-0.002,0.945
1433.501,-0.002,0.945
1434.001,-0.002,0.945
1434.5,-0.002,0.945
1435,-0.002,0.945
1435.5,-0.002,0.945
1436.001,-0.002,0.945
1436.5,-0.002,0.945
1437.001,-0.002,0.945
1437.501,-0.002,0.945
1438.001,-0.002,0.945
1438.5,-0.002,0.945
1439,-0.002,0.945
1439.5,-0.002,0.945
1440.001,-0.0025,0.945
1440.5,-0.0025,0.945
1441.001,-0.0025,0.945
1441.5,-0.0025,0.945
1442,-0.0025,0.945
1442.5,-0.0025,0.945
1443,-0.0025,0.945
1443.501,-0.0025,0.945
1444,-0.0025,0.945
1444.5,-0.0025,0.945
1445,-0.0025,0.945
1445.501,-0.0025,0.945
1446.001,-0.0025,0.945
1446.5,-0.0025,0.945
1447,-0.0025,0.945
1447.5,-0.0025,0.945
1448.001,-0.0025,0.945
1448.5,-0.0025,0.945
1449,-0.0025,0.945
1449.501,-0.0025,0.945
1450.001,-0.0025,0.945
1450.5,-0.0025,0.945
1450.999,-0.0025,0.945
1451.5,-0.0025,0.945
1452.001,-0.0025,0.945
1452.5,-0.0025,0.945
1453,-0.0025,0.945
1453.501,-0.0025,0.945
1454,-0.0025,0.945
1454.499,-0.0025,0.945
1455.001,-0.0025,0.95
1455.5,-0.0025,0.95
1456.001,-0.0025,0.945
1456.5,-0.0025,0.95
1457,-0.0025,0.95
1457.5,-0.0025,0.95
1458,-0.0025,0.95
1458.5,-0.0025,0.95
1459.001,-0.0025,0.95
1459.5,-0.0025,0.95
1460.001,-0.003,0.95
1460.5,-0.003,0.95
1461.001,-0.003,0.95
1461.5,-0.003,0.95
1462,-0.003,0.95
1462.5,-0.003,0.95
1463,-0.003,0.95
1463.5,-0.003,0.95
1464,-0.003,0.95
1464.5,-0.003,0.95
1465,-0.003,0.95
1465.5,-0.003,0.95
1466,-0.003,0.95
1466.5,-0.003,0.95
1467,-0.003,0.95
1467.501,-0.003,0.95
1468,-0.003,0.95
1468.5,-0.003,0.95
1469,-0.003,0.945
1469.5,-0.003,0.95
1470.001,-0.003,0.945
1470.501,-0.003,0.95
1471,-0.003,0.95
1471.5,-0.003,0.95
1472,-0.003,0.95
1472.5,-0.003,0.945
1473.001,-0.003,0.945
1473.5,-0.003,0.95
1474.001,-0.003,0.95
1474.501,-0.003,0.95
1475,-0.003,0.95
1475.5,-0.003,0.95
1475.999,-0.003,0.95
1476.501,-0.003,0.95
1477.001,-0.003,0.95
1477.5,-0.003,0.95
1478.001,-0.003,0.95
1478.501,-0.003,0.95
1479,-0.0035,0.95
1479.5,-0.0035,0.95
1480,-0.0035,0.95
1480.5,-0.0035,0.95
1481,-0.0035,0.95
1481.5,-0.0035,0.95
1482,-0.0035,0.95
1482.5,-0.0035,0.95
1483,-0.0035,0.95
1483.501,-0.0035,0.95
1484.001,-0.0035,0.955
1484.501,-0.0035,0.95
1485,-0.0035,0.95
1485.5,-0.0035,0.95
1486.001,-0.0035,0.95
1486.5,-0.0035,0.95
1487,-0.0035,0.95
1487.5,-0.0035,0.95
1488.001,-0.0035,0.95
1488.5,-0.0035,0.95
1489,-0.0035,0.95
1489.5,-0.0035,0.95
1490.001,-0.0035,0.95
1490.5,-0.0035,0.95
1491,-0.0035,0.95
1491.501,-0.0035,0.95
1492,-0.0035,0.95
1492.5,-0.0035,0.95
1493.001,-0.0035,0.95
1493.5,-0.0035,0.95
1494,-0.0035,0.95
1494.5,-0.0035,0.95
1495.001,-0.0035,0.95
1495.501,-0.0035,0.95
1496,-0.0035,0.95
1496.501,-0.004,0.95
1497,-0.004,0.95
1497.501,-0.004,0.95
1498.001,-0.004,0.95
1498.501,-0.004,0.95
1499,-0.004,0.95
1499.5,-0.004,0.95
1500,-0.004,0.95
1500.501,-0.004,0.95
1501.001,-0.004,0.95
1501.501,-0.004,0.955
1502.001,-0.004,0.955
1502.501,-0.004,0.955
1503,-0.004,0.955
1503.501,-0.004,0.95
1504,-0.004,0.95
1504.501,-0.004,0.955
1505,-0.004,0.955
1505.5,-0.004,0.955
1506,-0.004,0.955
1506.5,-0.004,0.955
1507,-0.004,0.955
1507.501,-0.004,0.955
1508,-0.004,0.955
1508.5,-0.004,0.955
1509,-0.004,0.955
1509.502,-0.004,0.955
1510,-0.004,0.95
1510.5,-0.004,0.95
1511.001,-0.004,0.95
1511.5,-0.004,0.95
1512.001,-0.004,0.95
1512.501,-0.004,0.955
1513,-0.0045,0.955
1513.5,-0.0045,0.95
1514.001,-0.0045,0.95
1514.501,-0.0045,0.95
1515.001,-0.0045,0.95
1515.501,-0.0045,0.95
1516,-0.0045,0.95
1516.501,-0.0045,0.95
1517.001,-0.0045,0.95
1517.5,-0.0045,0.95
1518.001,-0.0045,0.95
1518.501,-0.0045,0.955
1519.001,-0.0045,0.955
1519.499,-0.0045,0.95
1520,-0.0045,0.95
1520.5,-0.0045,0.95
1521,-0.0045,0.955
1521.5,-0.0045,0.955
1522.001,-0.0045,0.955
1522.5,-0.0045,0.955
1523,-0.0045,0.955
1523.5,-0.0045,0.955
1524,-0.0045,0.955
1524.5,-0.0045,0.95
1525.001,-0.0045,0.955
1525.5,-0.0045,0.955
1526.001,-0.0045,0.955
1526.501,-0.0045,0.955
1527,-0.0045,0.955
1527.5,-0.0045,0.955
1528.001,-0.0045,0.955
1528.5,-0.0045,0.955
1529,-0.0045,0.955
1529.5,-0.0045,0.955
1530.001,-0.0045,0.955
1530.5,-0.005,0.955
1531.001,-0.005,0.955
1531.5,-0.005,0.955
1532,-0.005,0.955
1532.499,-0.005,0.955
1533,-0.005,0.955
1533.5,-0.005,0.955
1534,-0.005,0.955
1534.501,-0.005,0.955
1535,-0.005,0.955
1535.5,-0.005,0.955
1536,-0.005,0.955
1536.501,-0.005,0.955
1537.001,-0.005,0.955
1537.5,-0.005,0.955
1537.999,-0.005,0.955
1538.5,-0.005,0.955
1539,-0.005,0.955
1539.5,-0.005,0.955
1540.001,-0.005,0.955
1540.5,-0.005,0.955
1540.999,-0.005,0.955
1541.501,-0.005,0.955
1542.001,-0.005,0.955
1542.5,-0.005,0.955
1543,-0.005,0.955
1543.5,-0.005,0.955
1544,-0.005,0.955
1544.5,-0.005,0.955
1545.001,-0.005,0.955
1545.5,-0.005,0.955
1546,-0.005,0.955
1546.5,-0.005,0.955
1547.001,-0.005,0.955
1547.5,-0.005,0.955
1548,-0.0055,0.955
1548.5,-0.0055,0.955
1549.001,-0.0055,0.955
1549.501,-0.0055,0.955
1550.001,-0.0055,0.955
1550.5,-0.0055,0.955
1551,-0.0055,0.955
1551.501,-0.0055,0.955
1552.001,-0.0055,0.955
1552.501,-0.0055,0.96
1553,-0.0055,0.955
1553.501,-0.0055,0.955
1554.001,-0.0055,0.955
1554.5,-0.0055,0.955
1555.001,-0.0055,0.955
1555.501,-0.0055,0.955
1556,-0.0055,0.955
1556.5,-0.0055,0.955
1557,-0.0055,0.955
1557.501,-0.0055,0.955
1558,-0.0055,0.955
1558.501,-0.0055,0.955
1559,-0.0055,0.955
1559.5,-0.0055,0.955
1560,-0.0055,0.955
1560.5,-0.0055,0.955
1561,-0.0055,0.955
1561.5,-0.0055,0.955
1562,-0.0055,0.955
1562.5,-0.0055,0.955
1563.001,-0.0055,0.955
1563.501,-0.0055,0.955
1564.001,-0.0055,0.955
1564.501,-0.0055,0.955
1565,-0.0055,0.955
1565.5,-0.0055,0.955
1566,-0.006,0.955
1566.5,-0.006,0.955
1567.001,-0.006,0.955
1567.501,-0.006,0.955
1568.001,-0.006,0.955
1568.5,-0.006,0.955
1569,-0.006,0.955
1569.5,-0.006,0.955
1570.001,-0.006,0.955
1570.501,-0.006,0.955
1571.001,-0.006,0.955
1571.501,-0.006,0.955
1572,-0.006,0.955
1572.499,-0.006,0.955
1573,-0.006,0.955
1573.5,-0.006,0.955
1574,-0.006,0.96
1574.502,-0.006,0.96
1575,-0.006,0.955
1575.5,-0.006,0.96
1576,-0.006,0.96
1576.5,-0.006,0.955
1577,-0.006,0.96
1577.5,-0.006,0.96
1578.001,-0.006,0.96
1578.501,-0.006,0.96
1579.001,-0.006,0.96
1579.5,-0.006,0.96
1580.001,-0.006,0.96
1580.499,-0.006,0.96
1581,-0.006,0.96
1581.5,-0.006,0.96
1582.001,-0.006,0.96
1582.5,-0.006,0.96
1583,-0.006,0.96
1583.5,-0.006,0.96
1584,-0.006,0.96
1584.501,-0.006,0.96
1585,-0.0065,0.96
1585.5,-0.0065,0.96
1586,-0.0065,0.96
1586.5,-0.0065,0.96
1586.999,-0.0065,0.96
1587.5,-0.0065,0.955
1588.001,-0.0065,0.955
1588.5,-0.0065,0.955
1589,-0.0065,0.955
1589.5,-0.0065,0.955
1590,-0.0065,0.955
1590.5,-0.0065,0.955
1591,-0.0065,0.955
1591.501,-0.0065,0.955
1592,-0.0065,0.955
1592.5,-0.0065,0.955
1592.999,-0.0065,0.955
1593.5,-0.0065,0.955
1593.999,-0.0065,0.955
1594.5,-0.0065,0.955
1594.999,-0.0065,0.955
1595.5,-0.0065,0.955
1596.001,-0.0065,0.96
1596.5,-0.0065,0.96
1597.001,-0.0065,0.96
1597.5,-0.0065,0.96
1598,-0.0065,0.96
1598.5,-0.0065,0.96
1599,-0.0065,0.96
1599.5,-0.0065,0.96
1599.999,-0.0065,0.96
1600.5,-0.0065,0.96
1601,-0.0065,0.96
1601.5,-0.0065,0.96
1602.001,-0.0065,0.96
1602.5,-0.007,0.96
1603,-0.0065,0.96
1603.5,-0.0065,0.955
1603.999,-0.0065,0.96
1604.5,-0.007,0.96
1605,-0.007,0.96
1605.5,-0.007,0.96
1606,-0.007,0.96
1606.5,-0.007,0.96
1607,-0.007,0.96
1607.5,-0.007,0.96
1607.999,-0.007,0.96
1608.5,-0.007,0.96
1609.001,-0.007,0.96
1609.501,-0.007,0.96
1610,-0.007,0.96
1610.5,-0.007,0.96
1611,-0.007,0.96
1611.5,-0.007,0.96
1611.999,-0.007,0.96
1612.501,-0.007,0.96
1613,-0.007,0.96
1613.5,-0.007,0.96
1614,-0.007,0.96
1614.5,-0.007,0.96
1615,-0.007,0.96
1615.5,-0.007,0.96
1616,-0.007,0.96
1616.5,-0.007,0.96
1616.999,-0.007,0.96
1617.5,-0.007,0.96
1618,-0.007,0.96
1618.5,-0.007,0.96
1619,-0.007,0.96
1619.5,-0.007,0.96
1620,-0.007,0.96
1620.5,-0.007,0.96
1620.999,-0.007,0.96
1621.5,-0.007,0.96
1621.999,-0.007,0.96
1622.5,-0.007,0.96
1623,-0.007,0.96
1623.5,-0.007,0.96
1624.001,-0.007,0.96
1624.5,-0.007,0.96
1625.001,-0.007,0.96
1625.5,-0.0075,0.96
1626.001,-0.0075,0.96
1626.501,-0.0075,0.96
1627,-0.0075,0.96
1627.5,-0.0075,0.96
1628,-0.0075,0.96
1628.5,-0.0075,0.96
1629,-0.0075,0.96
1629.501,-0.0075,0.96
1630.001,-0.0075,0.96
1630.5,-0.0075,0.96
1631,-0.0075,0.96
1631.5,-0.0075,0.96
1632.001,-0.0075,0.96
1632.5,-0.0075,0.96
1633,-0.0075,0.96
1633.501,-0.0075,0.96
1634,-0.0075,0.96
1634.5,-0.0075,0.96
1635.001,-0.0075,0.96
1635.5,-0.0075,0.96
1636,-0.0075,0.96
1636.5,-0.0075,0.96
1637.001,-0.0075,0.96
1637.501,-0.0075,0.96
1638,-0.0075,0.96
1638.5,-0.0075,0.96
1639.001,-0.0075,0.96
1639.5,-0.0075,0.96
1640,-0.0075,0.96
1640.5,-0.0075,0.96
1641,-0.0075,0.96
1641.501,-0.0075,0.96
1642,-0.0075,0.96
1642.5,-0.0075,0.96
1643,-0.0075,0.96
1643.501,-0.0075,0.96
1644,-0.0075,0.96
1644.5,-0.0075,0.96
1645,-0.0075,0.965
1645.499,-0.0075,0.96
1646.001,-0.0075,0.96
1646.501,-0.0075,0.96
1647,-0.0075,0.96
1647.501,-0.0075,0.96
1648.001,-0.008,0.96
1648.501,-0.008,0.96
1649,-0.008,0.96
1649.5,-0.008,0.96
1650,-0.008,0.96
1650.499,-0.008,0.96
1651,-0.008,0.96
1651.5,-0.008,0.96
1652,-0.008,0.96
1652.501,-0.008,0.96
1653.001,-0.008,0.96
1653.5,-0.008,0.96
1653.999,-0.008,0.96
1654.501,-0.008,0.96
1655,-0.008,0.96
1655.5,-0.008,0.96
1656.001,-0.008,0.96
1656.5,-0.008,0.96
1657.001,-0.008,0.96
1657.5,-0.008,0.96
1658,-0.008,0.96
1658.499,-0.008,0.96
1659.001,-0.008,0.96
1659.5,-0.008,0.96
1660.001,-0.008,0.96
1660.5,-0.008,0.96
1661,-0.008,0.96
1661.501,-0.008,0.96
1662,-0.008,0.96
1662.5,-0.008,0.96
1663.001,-0.008,0.96
1663.5,-0.008,0.96
1664.001,-0.008,0.96
1664.501,-0.008,0.96
1665,-0.008,0.965
1665.5,-0.008,0.965
1666,-0.008,0.965
1666.5,-0.008,0.965
1667,-0.008,0.965
1667.5,-0.008,0.965
1668,-0.008,0.965
1668.5,-0.008,0.965
1669,-0.008,0.965
1669.5,-0.008,0.965
1670,-0.008,0.96
1670.5,-0.008,0.965
1671.001,-0.0085,0.965
1671.501,-0.0085,0.965
1672,-0.0085,0.965
1672.501,-0.0085,0.96
1673,-0.0085,0.965
1673.5,-0.0085,0.965
1674.001,-0.0085,0.965
1674.5,-0.0085,0.965
1675,-0.0085,0.96
1675.5,-0.0085,0.965
1676,-0.0085,0.96
1676.501,-0.0085,0.96
1677.001,-0.0085,0.96
1677.5,-0.0085,0.965
1678,-0.0085,0.96
1678.499,-0.0085,0.96
1679,-0.0085,0.96
1679.5,-0.0085,0.96
1680,-0.0085,0.96
1680.5,-0.0085,0.96
1681.001,-0.0085,0.96
1681.5,-0.0085,0.96
1682,-0.0085,0.96
1682.5,-0.0085,0.96
1682.999,-0.0085,0.96
1683.501,-0.0085,0.96
1684,-0.0085,0.96
1684.501,-0.0085,0.96
1685,-0.0085,0.96
1685.501,-0.0085,0.96
1686,-0.0085,0.96
1686.501,-0.0085,0.96
1687,-0.0085,0.96
1687.501,-0.0085,0.965
1688,-0.0085,0.965
1688.5,-0.0085,0.96
1689,-0.0085,0.965
1689.5,-0.0085,0.965
1690,-0.0085,0.965
1690.5,-0.0085,0.96
1691,-0.0085,0.96
1691.499,-0.0085,0.965
1692.002,-0.0085,0.965
1692.5,-0.0085,0.96
1693,-0.0085,0.965
1693.5,-0.0085,0.965
1693.999,-0.0085,0.965
1694.5,-0.0085,0.965
1695,-0.0085,0.965
1695.5,-0.0085,0.965
1696.001,-0.009,0.965
1696.501,-0.009,0.965
1697,-0.009,0.965
1697.5,-0.009,0.965
1698.001,-0.009,0.965
1698.5,-0.009,0.965
1699,-0.009,0.965
1699.5,-0.009,0.965
1700,-0.009,0.965
1700.5,-0.009,0.965
1701,-0.009,0.965
1701.5,-0.009,0.965
1702,-0.009,0.965
1702.5,-0.009,0.965
1703,-0.009,0.965
1703.5,-0.009,0.965
1704,-0.009,0.965
1704.5,-0.009,0.965
1705,-0.009,0.965
1705.5,-0.009,0.965
1706.001,-0.009,0.965
1706.5,-0.009,0.965
1707,-0.009,0.965
1707.499,-0.009,0.965
1708,-0.009,0.965
1708.5,-0.009,0.965
1708.999,-0.009,0.965
1709.5,-0.009,0.965
1710,-0.009,0.96
1710.5,-0.009,0.965
1711,-0.009,0.965
1711.5,-0.009,0.965
1712,-0.009,0.96
1712.5,-0.009,0.965
1713,-0.009,0.965
1713.501,-0.009,0.96
1714,-0.009,0.96
1714.499,-0.009,0.96
1715,-0.009,0.965
1715.5,-0.009,0.965
1716,-0.009,0.965
1716.5,-0.009,0.965
1717.001,-0.009,0.965
1717.5,-0.009,0.965
1718.001,-0.009,0.965
1718.501,-0.009,0.965
1719,-0.009,0.965
1719.501,-0.009,0.965
1720,-0.009,0.965
1720.5,-0.009,0.965
1721.001,-0.009,0.965
1721.501,-0.009,0.965
1722,-0.009,0.965
1722.5,-0.009,0.965
1723,-0.009,0.965
1723.501,-0.009,0.965
1724,-0.009,0.965
1724.5,-0.0095,0.965
1725,-0.0095,0.965
1725.5,-0.0095,0.965
1726,-0.0095,0.965
1726.5,-0.0095,0.965
1727,-0.0095,0.965
1727.5,-0.0095,0.965
1728,-0.0095,0.965
1728.499,-0.0095,0.965
1728.999,-0.0095,0.965
1729.5,-0.0095,0.965
1730,-0.0095,0.965
1730.5,-0.0095,0.965
1730.999,-0.0095,0.965
1731.5,-0.0095,0.965
1732,-0.0095,0.965
1732.5,-0.0095,0.965
1733,-0.0095,0.965
1733.501,-0.0095,0.965
1734.001,-0.0095,0.965
1734.5,-0.0095,0.965
1735.001,-0.0095,0.965
1735.5,-0.0095,0.965
1736,-0.0095,0.965
1736.5,-0.0095,0.965
1737,-0.0095,0.965
1737.5,-0.0095,0.965
1737.999,-0.0095,0.965
1738.501,-0.0095,0.965
1739,-0.0095,0.965
1739.5,-0.0095,0.965
1740,-0.0095,0.965
1740.5,-0.0095,0.965
1741,-0.0095,0.965
1741.5,-0.0095,0.965
1742,-0.0095,0.965
1742.5,-0.0095,0.965
1743,-0.0095,0.965
1743.501,-0.0095,0.965
1744,-0.0095,0.965
1744.5,-0.0095,0.965
1745,-0.0095,0.965
1745.5,-0.0095,0.965
1746,-0.0095,0.965
1746.5,-0.0095,0.965
1747.001,-0.0095,0.965
1747.5,-0.0095,0.965
1748,-0.0095,0.965
1748.5,-0.0095,0.965
1749,-0.0095,0.965
1749.501,-0.0095,0.97
1749.999,-0.0095,0.965
1750.501,-0.0095,0.965
1751.001,-0.0095,0.965
1751.501,-0.0095,0.965
1752,-0.0095,0.965
1752.5,-0.0095,0.965
1753,-0.0095,0.965
1753.501,-0.0095,0.965
1754.001,-0.0095,0.97
1754.5,-0.0095,0.965
1754.999,-0.0095,0.965
1755.501,-0.0095,0.965
1756,-0.01,0.965
1756.5,-0.01,0.965
1757,-0.01,0.965
1757.5,-0.01,0.965
1758,-0.01,0.965
1758.501,-0.01,0.965
1759,-0.01,0.965
1759.501,-0.01,0.965
1760,-0.01,0.965
1760.5,-0.01,0.965
1761,-0.01,0.965
1761.5,-0.01,0.965
1762,-0.01,0.965
1762.501,-0.01,0.965
1763.001,-0.01,0.965
1763.5,-0.01,0.965
1764,-0.01,0.965
1764.499,-0.01,0.965
1765,-0.01,0.965
1765.5,-0.01,0.965
1766,-0.01,0.965
1766.5,-0.01,0.965
1767,-0.01,0.965
1767.5,-0.01,0.965
1768,-0.01,0.965
1768.5,-0.01,0.965
1769,-0.01,0.965
1769.5,-0.01,0.965
1770,-0.01,0.965
1770.5,-0.01,0.965
1771,-0.01,0.965
1771.5,-0.01,0.965
1771.999,-0.01,0.965
1772.5,-0.01,0.965
1773.001,-0.01,0.965
1773.5,-0.01,0.965
1774,-0.01,0.965
1774.501,-0.01,0.965
1775.001,-0.01,0.965
1775.501,-0.01,0.965
1776,-0.01,0.965
1776.5,-0.01,0.965
1777,-0.01,0.965
1777.501,-0.01,0.965
1778.001,-0.01,0.97
1778.501,-0.01,0.97
1779,-0.01,0.965
1779.5,-0.01,0.97
1779.999,-0.01,0.965
1780.5,-0.01,0.965
1781,-0.01,0.965
1781.501,-0.01,0.97
1782,-0.01,0.965
1782.5,-0.01,0.965
1783,-0.01,0.97
1783.5,-0.01,0.97
1784.001,-0.01,0.97
1784.501,-0.01,0.965
1785,-0.01,0.97
1785.499,-0.01,0.97
1786,-0.01,0.97
1786.501,-0.01,0.965
1787,-0.01,0.97
1787.5,-0.01,0.97
1788,-0.01,0.965
1788.501,-0.01,0.97
1789,-0.01,0.965
1789.5,-0.0105,0.97
1789.999,-0.0105,0.965
1790.5,-0.0105,0.965
1791,-0.0105,0.965
1791.499,-0.0105,0.97
1792,-0.0105,0.965
1792.5,-0.0105,0.965
1793.001,-0.0105,0.965
1793.501,-0.0105,0.965
1794.001,-0.0105,0.965
1794.501,-0.0105,0.965
1794.999,-0.0105,0.965
1795.501,-0.0105,0.965
1796,-0.0105,0.965
1796.5,-0.0105,0.965
1797,-0.0105,0.965
1797.5,-0.0105,0.965
1798,-0.0105,0.965
1798.5,-0.0105,0.965
1798.999,-0.0105,0.965
1799.501,-0.0105,0.965
1800.001,-0.0105,0.965
1800.501,-0.0105,0.965
1801.001,-0.0105,0.965
1801.5,-0.0105,0.965
1802.001,-0.0105,0.965
1802.5,-0.0105,0.965
1803.001,-0.0105,0.965
1803.5,-0.0105,0.965
1803.999,-0.0105,0.965
1804.501,-0.0105,0.965
1805.001,-0.0105,0.965
1805.5,-0.0105,0.965
1806,-0.0105,0.965
1806.501,-0.0105,0.97
1807,-0.0105,0.965
1807.499,-0.0105,0.97
1808,-0.0105,0.97
1808.5,-0.0105,0.97
1809,-0.0105,0.97
1809.5,-0.0105,0.97
1810.001,-0.0105,0.97
1810.5,-0.0105,0.97
1811,-0.0105,0.97
1811.5,-0.0105,0.97
1812.001,-0.0105,0.97
1812.5,-0.0105,0.97
1813,-0.0105,0.97
1813.5,-0.0105,0.97
1814,-0.0105,0.97
1814.5,-0.0105,0.97
1815.001,-0.0105,0.97
1815.5,-0.0105,0.97
1816,-0.0105,0.97
1816.501,-0.0105,0.97
1817,-0.0105,0.97
1817.5,-0.0105,0.97
1818.001,-0.0105,0.965
1818.5,-0.0105,0.97
1819.001,-0.0105,0.965
1819.5,-0.0105,0.965
1820.001,-0.0105,0.97
1820.5,-0.0105,0.97
1821,-0.0105,0.965
1821.5,-0.0105,0.965
1822.001,-0.0105,0.965
1822.5,-0.0105,0.965
1823,-0.0105,0.965
1823.5,-0.0105,0.965
1824,-0.0105,0.97
1824.5,-0.0105,0.965
1825.001,-0.011,0.965
1825.5,-0.011,0.965
1825.999,-0.011,0.965
1826.5,-0.011,0.965
1827,-0.011,0.965
1827.5,-0.011,0.965
1827.999,-0.011,0.965
1828.5,-0.011,0.965
1829.001,-0.011,0.97
1829.5,-0.011,0.965
1830,-0.011,0.97
1830.5,-0.011,0.965
1831,-0.011,0.965
1831.5,-0.011,0.965
1832.001,-0.011,0.965
1832.5,-0.011,0.965
1833,-0.011,0.97
1833.5,-0.011,0.97
1834,-0.011,0.965
1834.5,-0.011,0.97
1835,-0.011,0.965
1835.501,-0.011,0.97
1836.001,-0.011,0.97
1836.5,-0.011,0.97
1837.001,-0.011,0.97
1837.5,-0.011,0.97
1838,-0.011,0.97
1838.499,-0.011,0.965
1839,-0.011,0.97
1839.5,-0.011,0.965
1840.001,-0.011,0.97
1840.5,-0.011,0.97
1841,-0.011,0.97
1841.5,-0.011,0.97
1841.999,-0.011,0.97
1842.501,-0.011,0.97
1843,-0.011,0.97
1843.501,-0.011,0.97
1844.001,-0.011,0.97
1844.5,-0.011,0.97
1845,-0.011,0.97
1845.5,-0.011,0.965
1846,-0.011,0.97
1846.501,-0.011,0.97
1847,-0.011,0.97
1847.5,-0.011,0.97
1848,-0.011,0.97
1848.5,-0.011,0.97
1849,-0.011,0.97
1849.5,-0.011,0.97
1850,-0.011,0.97
1850.5,-0.011,0.97
1851,-0.011,0.97
1851.5,-0.011,0.97
1852,-0.011,0.97
1852.5,-0.011,0.97
1853,-0.011,0.97
1853.5,-0.011,0.97
1854,-0.011,0.97
1854.5,-0.011,0.97
1855,-0.011,0.97
1855.501,-0.011,0.97
1856,-0.011,0.97
1856.501,-0.011,0.97
1857,-0.011,0.97
1857.5,-0.011,0.97
1858,-0.011,0.97
1858.501,-0.011,0.97
1859,-0.011,0.965
1859.5,-0.011,0.97
1860,-0.011,0.97
1860.501,-0.011,0.97
1861,-0.011,0.97
1861.5,-0.011,0.97
1862,-0.011,0.97
1862.5,-0.011,0.97
1863,-0.011,0.97
1863.5,-0.0115,0.97
1864.001,-0.0115,0.97
1864.501,-0.0115,0.97
1865.001,-0.0115,0.97
1865.5,-0.0115,0.97
1866.001,-0.0115,0.97
1866.501,-0.0115,0.97
1867,-0.0115,0.97
1867.5,-0.0115,0.97
1867.999,-0.0115,0.97
1868.499,-0.0115,0.97
1869,-0.0115,0.97
1869.501,-0.0115,0.97
1869.999,-0.0115,0.97
1870.5,-0.0115,0.97
1871,-0.0115,0.97
1871.5,-0.0115,0.97
1872,-0.0115,0.97
1872.5,-0.0115,0.97
1873.001,-0.0115,0.97
1873.5,-0.0115,0.97
1874,-0.0115,0.97
1874.5,-0.0115,0.97
1875,-0.0115,0.97
1875.5,-0.0115,0.97
1876,-0.0115,0.97
1876.5,-0.0115,0.97
1877,-0.0115,0.97
1877.5,-0.0115,0.97
1878.001,-0.0115,0.97
1878.5,-0.0115,0.97
1879,-0.0115,0.97
1879.499,-0.0115,0.97
1880,-0.0115,0.97
1880.5,-0.0115,0.97
1881,-0.0115,0.97
1881.5,-0.0115,0.97
1882,-0.0115,0.97
1882.501,-0.0115,0.97
1882.999,-0.0115,0.97
1883.5,-0.0115,0.97
1884,-0.0115,0.97
1884.501,-0.0115,0.97
1885,-0.0115,0.97
1885.5,-0.0115,0.97
1886,-0.0115,0.97
1886.5,-0.0115,0.97
1887,-0.0115,0.97
1887.501,-0.0115,0.97
1888,-0.0115,0.97
1888.5,-0.0115,0.97
1889,-0.0115,0.97
1889.499,-0.0115,0.97
1890.001,-0.0115,0.97
1890.5,-0.0115,0.97
1891,-0.0115,0.97
1891.5,-0.0115,0.97
1892,-0.0115,0.97
1892.501,-0.0115,0.97
1893,-0.0115,0.97
1893.5,-0.0115,0.97
1894.001,-0.0115,0.97
1894.5,-0.0115,0.97
1895,-0.0115,0.97
1895.5,-0.0115,0.97
1896,-0.0115,0.97
1896.5,-0.0115,0.97
1897,-0.0115,0.975
1897.5,-0.0115,0.97
1898,-0.0115,0.97
1898.5,-0.0115,0.97
1899,-0.0115,0.97
1899.5,-0.0115,0.97
1900,-0.0115,0.97
1900.5,-0.0115,0.97
1901,-0.0115,0.97
1901.5,-0.0115,0.97
1902,-0.0115,0.97
1902.5,-0.0115,0.97
1903,-0.0115,0.97
1903.501,-0.0115,0.97
1904,-0.0115,0.97
1904.499,-0.0115,0.97
1905,-0.0115,0.97
1905.5,-0.0115,0.97
1905.999,-0.012,0.97
1906.5,-0.012,0.97
1906.999,-0.012,0.97
1907.5,-0.012,0.97
1908,-0.012,0.97
1908.5,-0.012,0.97
1909,-0.012,0.97
1909.499,-0.012,0.97
1910,-0.012,0.97
1910.5,-0.012,0.97
1910.999,-0.012,0.97
1911.501,-0.012,0.97
1912.001,-0.012,0.97
1912.5,-0.012,0.97
1913,-0.012,0.97
1913.499,-0.012,0.97
1914,-0.012,0.97
1914.499,-0.012,0.97
1915,-0.012,0.97
1915.5,-0.012,0.97
1916,-0.012,0.97
1916.501,-0.012,0.97
1917,-0.012,0.97
1917.5,-0.012,0.97
1918,-0.012,0.97
1918.501,-0.012,0.97
1919.001,-0.012,0.97
1919.499,-0.012,0.97
1920,-0.012,0.97
1920.5,-0.012,0.97
1921,-0.012,0.97
1921.5,-0.012,0.97
1922.001,-0.012,0.97
1922.501,-0.012,0.97
1923,-0.012,0.97
1923.5,-0.012,0.97
1924,-0.012,0.97
1924.5,-0.012,0.97
1924.999,-0.012,0.97
1925.501,-0.012,0.97
1926,-0.012,0.97
1926.5,-0.012,0.97
1927.001,-0.012,0.97
1927.5,-0.012,0.97
1927.999,-0.012,0.97
1928.5,-0.012,0.97
1929,-0.012,0.97
1929.5,-0.012,0.97
1930,-0.012,0.97
1930.5,-0.012,0.97
1931.001,-0.012,0.97
1931.5,-0.012,0.97
1932.001,-0.012,0.97
1932.5,-0.012,0.97
1932.999,-0.012,0.97
1933.5,-0.012,0.975
1934.001,-0.012,0.97
1934.501,-0.012,0.97
1935.001,-0.012,0.97
1935.5,-0.012,0.97
1936.001,-0.012,0.975
1936.5,-0.012,0.975
1937,-0.012,0.975
1937.501,-0.012,0.975
1938,-0.012,0.97
1938.5,-0.012,0.97
1939,-0.012,0.97
1939.5,-0.012,0.975
1940,-0.012,0.975
1940.5,-0.012,0.975
1941,-0.012,0.975
1941.5,-0.012,0.97
1942,-0.012,0.97
1942.5,-0.012,0.97
1943,-0.012,0.975
1943.5,-0.012,0.97
1944,-0.012,0.97
1944.5,-0.012,0.97
1945,-0.012,0.97
1945.5,-0.012,0.97
1946,-0.012,0.97
1946.5,-0.012,0.97
1947,-0.012,0.97
1947.5,-0.012,0.97
1948,-0.012,0.97
1948.5,-0.012,0.975
1949,-0.012,0.97
1949.5,-0.012,0.97
1950.001,-0.012,0.97
1950.5,-0.012,0.97
1951,-0.012,0.97
1951.5,-0.012,0.97
1952.001,-0.0125,0.97
1952.5,-0.0125,0.97
1953.001,-0.0125,0.97
1953.501,-0.0125,0.97
1953.999,-0.0125,0.97
1954.5,-0.0125,0.97
1955,-0.0125,0.97
1955.499,-0.0125,0.97
1956.001,-0.0125,0.97
1956.501,-0.0125,0.97
1956.999,-0.0125,0.975
1957.5,-0.0125,0.97
1958,-0.0125,0.97
1958.501,-0.0125,0.97
1959,-0.0125,0.97
1959.5,-0.0125,0.97
1960,-0.0125,0.97
1960.5,-0.0125,0.97
1961.001,-0.0125,0.97
1961.499,-0.0125,0.97
1962,-0.0125,0.97
1962.5,-0.0125,0.97
1963,-0.0125,0.97
1963.501,-0.0125,0.97
1964,-0.0125,0.97
1964.5,-0.0125,0.97
1964.999,-0.0125,0.97
1965.5,-0.0125,0.97
1966,-0.0125,0.97
1966.5,-0.0125,0.97
1967,-0.0125,0.97
1967.501,-0.0125,0.97
1968,-0.0125,0.97
1968.5,-0.0125,0.97
1969.001,-0.0125,0.97
1969.5,-0.0125,0.97
1970,-0.0125,0.97
1970.501,-0.0125,0.97
1971.001,-0.0125,0.97
1971.5,-0.0125,0.97
1972,-0.0125,0.97
1972.499,-0.0125,0.97
1973,-0.0125,0.97
1973.5,-0.0125,0.97
1974,-0.0125,0.97
1974.5,-0.0125,0.97
1975,-0.0125,0.97
1975.5,-0.0125,0.97
1976,-0.0125,0.97
1976.501,-0.0125,0.97
1977,-0.0125,0.975
1977.5,-0.0125,0.97
1978,-0.0125,0.97
1978.501,-0.0125,0.97
1979,-0.0125,0.97
1979.5,-0.0125,0.97
1980,-0.0125,0.975
1980.5,-0.0125,0.97
1981,-0.0125,0.97
1981.5,-0.0125,0.97
1982,-0.0125,0.975
1982.5,-0.0125,0.975
1983.001,-0.0125,0.975
1983.5,-0.0125,0.975
1984,-0.0125,0.975
1984.5,-0.0125,0.975
1984.999,-0.0125,0.975
1985.5,-0.0125,0.975
1986,-0.0125,0.97
1986.5,-0.0125,0.97
1987,-0.0125,0.975
1987.5,-0.0125,0.97
1988,-0.0125,0.975
1988.5,-0.0125,0.975
1989,-0.0125,0.975
1989.5,-0.0125,0.975
1990,-0.0125,0.975
1990.499,-0.0125,0.975
1991.001,-0.0125,0.975
1991.5,-0.0125,0.975
1992,-0.0125,0.975
1992.5,-0.0125,0.975
1992.999,-0.0125,0.975
1993.5,-0.0125,0.975
1993.999,-0.0125,0.975
1994.5,-0.0125,0.975
1995.001,-0.0125,0.975
1995.5,-0.0125,0.975
1996,-0.0125,0.975
1996.501,-0.0125,0.975
1997.001,-0.0125,0.975
1997.5,-0.0125,0.975
1998,-0.0125,0.975
1998.5,-0.0125,0.975
1999,-0.0125,0.975
1999.5,-0.0125,0.975
2000,-0.0125,0.975
